# XAS / LUCIA / SOLEIL : 
# Date : dim. 30 mai 2021
#
# TARGET : DR_07_02_07_Smaps1_POI9
# Total number of scan(s) : 3
# Scan N° : 3
# Coordinates : 
#               Horizontal : 6271.84
#               Vertical : -6813.88
#               Depth : 11587.9
#               Rotation : 5.002
# ROI window : 
#               ROI_inf : 490
#               ROI_sup : 525
#
# Start of this scan : 07:06:56
# End of this scan : 07:13:31
#
# I0 current at start (µA) : 0
# USER COMMENTS : 
# 
# EXPERIMENTAL CONFIGURATION : 
# Undulator Harmonic : 5       Offset : nan
# Undulator Polarization : 0
# Low pass filter angle (°) : 0.800959         translation (µm) : -354
# Monochromator Crystal : 1: Si 111
#
# SCAN : 
# Range		From(eV)	To(eV)		Step(eV)	Time(sec)
## 1		2450		2465		1		1
## 2		2465.2		2488		0.2		1
## 3		2489		2525		1		1
#
# Energy	Io		FY		DeadTime		FY_c		TEY		It		Ctr4
2450		37054		219		37.4267		349.989		182		83		0
2451		37152		221		37.4364		353.241		180		83		0
2452		37191		218		37.3721		348.088		163		84		0
2453		37211		182		37.6112		291.719		143		85		0
2454		37279		219		37.5116		350.465		156		83		0
2455		37294		207		37.4935		331.165		156		82		0
2456		37321		248		37.5683		397.234		171		83		0
2457		37401		235		37.507		376.042		155		81		0
2458		37410		222		37.6367		355.978		139		83		0
2459		37417		208		37.5213		332.914		148		84		0
2460		37430		221		37.5003		353.602		155		84		0
2461		37433		249		37.5276		398.576		164		81		0
2462		37437		212		37.5125		339.268		142		82		0
2463		37478		200		37.4772		319.883		148		81		0
2464		37474		231		37.5828		370.09		131		82		0
2465		37470		281		37.6199		450.464		151		84		0
2465.2		37465		343		37.4788		548.614		143		85		0
2465.4		37498		382		37.4244		610.461		138		84		0
2465.6		37496		395		37.4524		631.519		139		83		0
2465.8		37478		432		37.5774		692.057		150		83		0
2466		37455		493		37.5502		789.434		154		82		0
2466.2		37465		567		37.5545		907.992		165		83		0
2466.4		37494		558		37.6989		895.65		132		84		0
2466.6		37439		636		37.4113		1016.16		159		82		0
2466.8		37472		550		37.5432		880.608		155		82		0
2467		37453		572		37.5132		915.393		134		82		0
2467.2		37469		559		37.4971		894.359		153		81		0
2467.4		37442		485		37.5889		777.106		135		85		0
2467.6		37410		484		37.4712		774.043		148		85		0
2467.8		37430		432		37.4798		690.976		138		85		0
2468		37384		444		37.3074		708.217		152		83		0
2468.2		37349		454		37.4988		726.386		130		82		0
2468.4		37343		432		37.2085		687.991		134		82		0
2468.6		37310		470		37.4074		750.887		140		84		0
2468.8		37251		434		37.3326		692.546		160		83		0
2469		37167		499		37.2238		794.887		124		84		0
2469.2		37060		501		37.1857		797.589		145		84		0
2469.4		36948		573		37.0732		910.581		141		84		0
2469.6		36898		549		37.1496		873.503		134		82		0
2469.8		36842		583		36.754		921.798		129		83		0
2470		36792		565		36.958		896.229		123		81		0
2470.2		36842		556		36.9055		881.217		139		82		0
2470.4		36873		596		37.0977		947.501		149		83		0
2470.6		36931		562		37.0536		892.823		135		83		0
2470.8		36974		533		37.0805		847.115		133		84		0
2471		37022		540		37.029		857.538		142		84		0
2471.2		37042		494		36.9578		783.602		132		82		0
2471.4		37062		507		36.9755		804.449		156		83		0
2471.6		37094		522		37.0153		828.773		138		84		0
2471.8		37094		533		37.0289		846.42		140		82		0
2472		37125		527		37.0963		837.789		122		84		0
2472.2		37112		526		36.9512		834.274		125		82		0
2472.4		37166		513		36.9601		813.77		135		82		0
2472.6		37161		611		37.0334		970.356		142		82		0
2472.8		37169		604		37.0669		959.75		133		84		0
2473		37155		560		36.9509		888.197		121		85		0
2473.2		37139		570		37.0291		905.179		147		84		0
2473.4		37118		638		36.9929		1012.58		136		85		0
2473.6		37107		609		37.0802		967.899		139		81		0
2473.8		37137		595		37.0652		945.422		138		82		0
2474		37110		597		36.8719		945.697		147		82		0
2474.2		37272		618		37.0902		982.359		131		83		0
2474.4		37262		638		37.2408		1016.58		140		83		0
2474.6		37232		632		37.0029		1003.22		143		84		0
2474.8		37198		600		37.0393		952.975		150		83		0
2475		37206		610		36.9426		967.372		135		82		0
2475.2		37183		607		37.1369		965.59		141		83		0
2475.4		37196		622		37.1935		990.343		132		82		0
2475.6		37207		627		37.1154		997.065		145		81		0
2475.8		37212		644		36.942		1021.28		146		83		0
2476		37197		647		37.1752		1029.85		139		82		0
2476.2		37202		658		37.1537		1047		140		84		0
2476.4		37174		654		37.1741		1040.97		152		83		0
2476.6		37153		708		37.0003		1123.81		138		85		0
2476.8		37117		689		37.0594		1094.68		162		85		0
2477		37149		693		37.0503		1100.88		134		85		0
2477.2		37099		662		37.0572		1051.75		161		82		0
2477.4		37121		680		37.0537		1080.29		142		83		0
2477.6		37085		644		37.019		1022.53		144		82		0
2477.8		37079		665		36.9338		1054.45		139		82		0
2478		37100		647		37.0307		1027.48		140		84		0
2478.2		37106		634		37.0524		1007.19		146		84		0
2478.4		37124		587		37.0986		933.206		141		83		0
2478.6		37086		637		36.8664		1008.97		144		82		0
2478.8		37092		610		36.9383		967.306		149		82		0
2479		37087		616		36.9908		977.635		164		82		0
2479.2		37106		640		36.9167		1014.53		140		84		0
2479.4		37088		681		36.873		1078.78		132		83		0
2479.6		37110		616		36.9794		977.458		133		83		0
2479.8		37087		704		36.9604		1116.76		137		84		0
2480		37076		719		36.9855		1141.01		141		85		0
2480.2		37069		688		36.912		1090.54		164		82		0
2480.4		37078		784		36.9308		1243.08		125		83		0
2480.6		37084		770		37.1614		1225.36		137		82		0
2480.8		37067		854		36.9598		1354.69		136		84		0
2481		37078		878		37.0761		1395.34		136		85		0
2481.2		37101		867		36.9999		1376.19		138		83		0
2481.4		37115		976		37.044		1550.29		148		83		0
2481.6		37105		986		37.0231		1565.65		146		84		0
2481.8		37118		929		37.2064		1479.45		145		80		0
2482		37100		901		36.8685		1427.18		138		84		0
2482.2		37122		894		37.0041		1419.14		143		84		0
2482.4		37127		824		36.8976		1305.81		141		84		0
2482.6		37143		784		36.9754		1243.96		148		84		0
2482.8		37157		712		36.9589		1129.42		131		83		0
2483		37176		688		37.0232		1092.47		136		83		0
2483.2		37145		652		36.8513		1032.48		139		83		0
2483.4		37154		578		36.99		917.315		143		83		0
2483.6		37157		598		36.9515		948.476		133		84		0
2483.8		37191		563		36.9795		893.36		140		84		0
2484		37196		564		36.9252		894.176		143		84		0
2484.2		37203		547		36.9286		867.272		141		83		0
2484.4		37212		548		36.9688		869.41		140		85		0
2484.6		37225		541		36.944		857.968		150		83		0
2484.8		37205		575		36.8395		910.378		142		83		0
2485		37209		516		36.9248		818.071		134		83		0
2485.2		37215		554		36.8313		877.016		142		82		0
2485.4		37216		535		36.8767		847.547		138		83		0
2485.6		37196		517		36.9237		819.642		139		83		0
2485.8		37209		493		36.9589		782.029		133		84		0
2486		37163		541		36.9207		857.651		143		85		0
2486.2		37172		481		36.7917		760.976		130		84		0
2486.4		37178		523		37.0365		830.64		145		82		0
2486.6		37163		509		36.9714		807.569		134		83		0
2486.8		37181		490		36.9595		777.278		136		85		0
2487		37199		544		36.8954		862.061		136		85		0
2487.2		37189		513		36.8217		811.987		123		85		0
2487.4		37192		505		36.7005		797.795		135		84		0
2487.6		37189		525		36.7749		830.367		135		83		0
2487.8		37194		574		36.9147		909.879		142		81		0
2489		37229		528		36.9805		837.836		145		83		0
2490		37307		574		36.7756		907.877		149		82		0
2491		37292		544		36.878		861.823		159		84		0
2492		37252		545		36.9092		863.835		156		85		0
2493		37257		581		37.0042		922.284		134		84		0
2494		37440		595		36.902		942.977		150		82		0
2495		37413		519		37.0022		823.839		138		85		0
2496		37440		582		36.9683		923.345		140		85		0
2497		37420		593		36.9439		940.432		137		81		0
2498		37419		594		36.9267		941.761		146		82		0
2499		37451		555		37.0354		881.448		151		84		0
2500		37501		590		37.1009		938.01		140		85		0
2501		37494		569		36.8898		901.597		129		83		0
2502		37484		554		37.0219		879.671		145		84		0
2503		37493		554		36.8804		877.698		132		82		0
2504		37502		510		36.9024		808.271		141		82		0
2505		37532		557		36.9342		883.205		138		83		0
2506		37512		559		36.9869		887.117		136		83		0
2507		37551		549		37.122		873.12		145		83		0
2508		37559		568		37.036		902.102		150		84		0
2509		37636		497		37.1171		790.357		142		83		0
2510		37637		521		37.1203		828.566		141		82		0
2511		37645		464		36.977		736.239		137		82		0
2512		37650		554		36.9741		879.004		142		83		0
2513		37642		528		36.9081		836.874		150		83		0
2514		37611		490		36.8944		776.476		141		84		0
2515		37625		527		36.92		835.447		133		85		0
2516		37623		551		36.8514		872.545		129		83		0
2517		37641		512		37.003		812.737		143		83		0
2518		37712		546		36.9414		865.862		145		82		0
2519		37691		509		36.9562		807.375		146		82		0
2520		37708		544		36.9547		862.872		147		81		0
2521		37670		536		36.8162		848.318		139		83		0
2522		37637		533		36.8138		843.539		135		83		0
2523		37650		511		36.9068		809.912		135		85		0
2524		37691		544		36.9196		862.392		135		84		0
