# XAS / LUCIA / SOLEIL : 
# Date : dim. 30 mai 2021
#
# TARGET : DR_07_02_07_Smaps1_POI5
# Total number of scan(s) : 3
# Scan N° : 2
# Coordinates : 
#               Horizontal : 5696.83
#               Vertical : -6718.43
#               Depth : 11587.9
#               Rotation : 5.002
# ROI window : 
#               ROI_inf : 490
#               ROI_sup : 525
#
# Start of this scan : 05:39:03
# End of this scan : 05:45:37
#
# I0 current at start (µA) : 0
# USER COMMENTS : 
# 
# EXPERIMENTAL CONFIGURATION : 
# Undulator Harmonic : 5       Offset : nan
# Undulator Polarization : 0
# Low pass filter angle (°) : 0.800959         translation (µm) : -354
# Monochromator Crystal : 1: Si 111
#
# SCAN : 
# Range		From(eV)	To(eV)		Step(eV)	Time(sec)
## 1		2450		2465		1		1
## 2		2465.2		2488		0.2		1
## 3		2489		2525		1		1
#
# Energy	Io		FY		DeadTime		FY_c		TEY		It		Ctr4
2450		36855		206		36.7477		325.68		220		82		0
2451		36948		207		36.7687		327.369		209		82		0
2452		36967		231		37.0404		366.902		201		81		0
2453		37006		211		37.0304		335.082		183		81		0
2454		37039		211		37.0865		335.381		197		84		0
2455		37071		205		37.1874		326.368		179		84		0
2456		37071		190		36.7832		300.553		169		85		0
2457		37124		232		37.1116		368.907		175		83		0
2458		37146		229		37.0374		363.708		176		82		0
2459		37135		214		36.8575		338.916		173		81		0
2460		37138		189		36.951		299.767		181		82		0
2461		37144		218		37.0176		346.128		167		84		0
2462		37118		205		37.0414		325.611		172		84		0
2463		37167		205		36.9803		325.295		170		81		0
2464		37174		268		37.0614		425.812		174		81		0
2465		37158		293		36.9767		464.908		182		81		0
2465.2		37154		326		36.8577		516.294		167		82		0
2465.4		37178		359		36.7651		567.724		171		84		0
2465.6		37154		397		36.882		628.98		169		84		0
2465.8		37159		441		36.9784		699.76		177		82		0
2466		37102		487		36.8063		770.647		160		81		0
2466.2		37142		527		36.9234		835.492		187		81		0
2466.4		37128		578		36.9458		916.672		172		82		0
2466.6		37141		625		36.8649		989.941		174		83		0
2466.8		37170		623		36.9813		988.596		179		83		0
2467		37177		561		37.0003		890.481		171		81		0
2467.2		37216		508		37.0319		806.757		179		81		0
2467.4		37181		501		37.07		796.122		174		83		0
2467.6		37179		474		36.7504		749.411		173		85		0
2467.8		37167		421		36.9303		667.515		167		84		0
2468		37136		452		36.9228		716.582		167		85		0
2468.2		37113		393		36.9163		622.981		155		83		0
2468.4		37079		456		36.9139		722.821		167		81		0
2468.6		37051		441		36.749		697.222		172		82		0
2468.8		36989		514		36.7553		812.717		173		83		0
2469		36890		464		36.7878		734.035		172		82		0
2469.2		36812		472		36.5952		744.423		175		83		0
2469.4		36708		533		36.6957		841.965		172		84		0
2469.6		36657		572		36.5477		901.464		172		83		0
2469.8		36586		576		36.4262		906.033		167		82		0
2470		36572		555		36.3807		872.377		159		82		0
2470.2		36719		560		36.4664		881.423		172		82		0
2470.4		36766		561		36.4501		882.771		184		84		0
2470.6		36800		557		36.565		878.064		174		84		0
2470.8		36852		528		36.5842		832.6		166		82		0
2471		36882		522		36.4921		821.945		179		82		0
2471.2		36905		513		36.5427		808.417		175		83		0
2471.4		36931		506		36.5431		797.392		178		84		0
2471.6		36953		510		36.5736		804.081		176		86		0
2471.8		36976		525		36.4644		826.308		166		84		0
2472		36966		528		36.5047		831.558		167		82		0
2472.2		36986		522		36.461		821.543		158		81		0
2472.4		37020		541		36.6593		854.111		169		81		0
2472.6		37028		536		36.5076		844.195		169		82		0
2472.8		37039		595		36.5125		937.193		169		84		0
2473		37018		543		36.3763		853.455		167		84		0
2473.2		37017		564		36.5124		888.362		166		82		0
2473.4		37000		588		36.4211		924.834		153		83		0
2473.6		36987		601		36.4424		945.599		171		81		0
2473.8		36990		552		36.4188		868.181		163		82		0
2474		36977		537		36.4314		844.757		168		82		0
2474.2		36980		556		36.6653		877.876		157		84		0
2474.4		36944		534		36.4562		840.365		158		84		0
2474.6		36944		625		36.2702		980.704		147		84		0
2474.8		36947		585		36.5219		921.577		163		82		0
2475		36948		601		36.4836		946.212		164		83		0
2475.2		36930		658		36.4523		1035.44		151		84		0
2475.4		36953		628		36.3567		986.749		158		84		0
2475.6		36951		636		36.6141		1003.38		157		84		0
2475.8		36958		617		36.3574		969.477		171		85		0
2476		36933		601		36.5655		947.434		162		83		0
2476.2		36923		642		36.5016		1011.05		150		83		0
2476.4		36906		628		36.5882		990.352		177		83		0
2476.6		36881		636		36.4001		1000		154		83		0
2476.8		36873		656		36.5368		1033.67		149		83		0
2477		36863		656		36.5635		1034.1		162		83		0
2477.2		36860		625		36.5355		984.802		159		85		0
2477.4		36869		630		36.3997		990.562		165		86		0
2477.6		36850		597		36.411		938.842		160		85		0
2477.8		36866		672		36.5913		1059.79		163		85		0
2478		36848		626		36.3116		982.91		148		84		0
2478.2		36868		571		36.3408		896.964		166		82		0
2478.4		36855		589		36.3192		924.926		158		81		0
2478.6		36843		586		36.4039		921.44		168		82		0
2478.8		36862		584		36.438		918.788		159		83		0
2479		36844		573		36.4367		901.464		164		83		0
2479.2		36852		587		36.3914		922.832		154		84		0
2479.4		36862		623		36.6403		983.274		183		82		0
2479.6		36871		624		36.4432		981.799		175		82		0
2479.8		36862		620		36.3907		974.701		168		81		0
2480		36851		647		36.493		1018.79		149		82		0
2480.2		36865		677		36.4255		1064.89		163		83		0
2480.4		36861		699		36.2212		1095.97		162		85		0
2480.6		36875		789		36.4844		1242.21		175		84		0
2480.8		36870		780		36.3769		1225.97		158		83		0
2481		36876		817		36.3742		1284.07		156		83		0
2481.2		36882		886		36.3512		1392.01		175		84		0
2481.4		36895		913		36.3625		1434.69		162		84		0
2481.6		36876		911		36.4187		1432.81		159		84		0
2481.8		37054		874		36.4456		1375.2		168		84		0
2482		37074		874		36.6208		1379		160		84		0
2482.2		37066		833		36.4666		1311.12		166		81		0
2482.4		37078		758		36.568		1194.98		176		81		0
2482.6		37096		713		36.4876		1122.61		166		83		0
2482.8		37097		688		36.353		1080.96		155		84		0
2483		37117		626		36.5978		987.347		161		85		0
2483.2		37128		607		36.3751		954.029		160		84		0
2483.4		37105		560		36.466		881.417		139		85		0
2483.6		37121		541		36.4925		851.868		154		82		0
2483.8		37134		565		36.6056		891.245		161		81		0
2484		37159		527		36.6475		831.854		174		81		0
2484.2		37168		539		36.6901		851.368		152		81		0
2484.4		37169		548		36.6102		864.493		164		82		0
2484.6		37178		505		36.4124		794.18		165		83		0
2484.8		37154		531		36.5368		836.706		166		84		0
2485		37165		504		36.5379		794.174		160		84		0
2485.2		37174		530		36.6061		836.043		156		84		0
2485.4		37191		539		36.5991		850.146		163		84		0
2485.6		37173		475		36.4635		747.602		165		82		0
2485.8		37161		529		36.6406		834.919		163		81		0
2486		37144		457		36.3808		718.337		166		82		0
2486.2		37145		468		36.4164		736.039		158		82		0
2486.4		37156		483		36.3488		758.823		146		84		0
2486.6		37124		494		36.5413		778.459		144		85		0
2486.8		37125		504		36.4464		793.031		158		83		0
2487		37152		494		36.4626		777.495		149		81		0
2487.2		37133		508		36.4107		798.877		151		82		0
2487.4		37125		497		36.4651		782.247		153		81		0
2487.6		37110		451		36.4132		709.267		152		82		0
2487.8		37120		491		36.3529		771.441		150		84		0
2489		37163		566		36.3729		889.558		141		85		0
2490		37245		497		36.5961		783.863		166		82		0
2491		37228		530		36.4745		834.311		163		82		0
2492		37168		516		36.3052		810.113		154		83		0
2493		37184		546		36.3749		858.152		158		83		0
2494		37211		548		36.487		862.816		161		83		0
2495		37184		544		36.273		853.642		155		84		0
2496		37219		580		36.3761		911.607		159		83		0
2497		37211		538		36.4176		846.146		148		82		0
2498		37200		550		36.2347		862.537		155		81		0
2499		37248		609		36.3268		956.447		159		83		0
2500		37272		577		36.4729		908.274		151		84		0
2501		37273		541		36.4756		851.641		167		80		0
2502		37264		510		36.5336		803.575		166		81		0
2503		37309		499		36.4845		785.635		152		81		0
2504		37310		530		36.438		833.832		149		84		0
2505		37348		524		36.4374		824.385		151		83		0
2506		37302		501		36.3898		787.61		143		82		0
2507		37331		538		36.5365		847.731		147		82		0
2508		37345		513		36.3338		805.765		158		83		0
2509		37445		492		36.4032		773.623		157		83		0
2510		37434		479		36.4749		754.032		154		83		0
2511		37463		522		36.3441		820.034		168		82		0
2512		37460		488		36.2696		765.726		153		81		0
2513		37421		483		36.5265		760.947		160		81		0
2514		37354		501		36.2405		785.765		176		83		0
2515		37324		537		36.2584		842.464		142		85		0
2516		37324		452		36.4164		710.875		154		82		0
2517		37339		513		36.2045		804.132		150		83		0
2518		37412		485		36.4423		763.086		143		81		0
2519		37394		529		36.3513		831.125		142		82		0
2520		37387		516		36.3588		810.796		149		82		0
2521		37365		492		36.1069		770.037		152		82		0
2522		37314		518		36.2783		812.91		144		81		0
2523		37281		532		36.2345		834.307		149		84		0
2524		37307		594		36.22		931.326		157		82		0
