# XAS / LUCIA / SOLEIL : 
# Date : dim. 30 mai 2021
#
# TARGET : DR_13_01_01_Smap1_POI5
# Total number of scan(s) : 3
# Scan N° : 1
# Coordinates : 
#               Horizontal : 4393.13
#               Vertical : 3531.88
#               Depth : 10431.6
#               Rotation : 5.002
# ROI window : 
#               ROI_inf : 490
#               ROI_sup : 525
#
# Start of this scan : 03:09:16
# End of this scan : 03:16:03
#
# I0 current at start (µA) : 0
# USER COMMENTS : 
# 
# EXPERIMENTAL CONFIGURATION : 
# Undulator Harmonic : 5       Offset : nan
# Undulator Polarization : 0
# Low pass filter angle (°) : 0.800959         translation (µm) : -354
# Monochromator Crystal : 1: Si 111
#
# SCAN : 
# Range		From(eV)	To(eV)		Step(eV)	Time(sec)
## 1		2450		2465		1		1
## 2		2465.2		2488		0.2		1
## 3		2489		2525		1		1
#
# Energy	Io		FY		DeadTime		FY_c		TEY		It		Ctr4
2450		36872		234		35.5006		362.794		349		82		0
2451		36960		231		35.696		359.231		335		83		0
2452		36990		259		35.6431		402.443		318		83		0
2453		37020		224		35.6449		348.069		312		84		0
2454		37032		208		35.632		323.142		313		85		0
2455		37110		246		35.764		382.963		319		81		0
2456		37097		252		35.7946		392.49		310		83		0
2457		37149		255		35.8222		397.334		297		82		0
2458		37164		272		35.6897		422.949		303		82		0
2459		37173		231		35.9336		360.563		299		83		0
2460		37164		277		35.7867		431.375		306		84		0
2461		37172		280		35.8501		436.478		293		83		0
2462		37171		262		35.8551		408.45		293		82		0
2463		37211		322		35.9069		502.395		300		81		0
2464		37240		334		35.9354		521.349		287		83		0
2465		37205		403		35.8057		627.781		295		84		0
2465.2		37234		421		35.9422		657.219		301		83		0
2465.4		37212		459		35.935		716.46		289		83		0
2465.6		37218		487		35.9151		759.929		276		84		0
2465.8		37219		584		35.9242		911.421		272		85		0
2466		37208		597		35.95		932.084		298		84		0
2466.2		37218		647		35.9448		1010.07		296		82		0
2466.4		37204		715		36.0069		1117.31		284		82		0
2466.6		37217		691		35.8546		1077.24		302		82		0
2466.8		37222		710		36.0208		1109.74		279		83		0
2467		37224		654		35.8927		1020.16		295		82		0
2467.2		37203		622		35.9158		970.599		286		82		0
2467.4		37203		615		35.9436		960.091		292		83		0
2467.6		37155		555		35.8533		865.204		297		82		0
2467.8		37168		555		36.0624		868.033		314		82		0
2468		37247		582		35.9199		908.239		273		82		0
2468.2		37264		540		35.9201		842.697		297		85		0
2468.4		37247		532		35.8358		829.123		294		84		0
2468.6		37214		536		35.8951		836.13		281		85		0
2468.8		37168		572		35.7945		890.89		277		82		0
2469		37056		605		35.7916		942.245		285		81		0
2469.2		36963		663		35.7665		1032.17		283		84		0
2469.4		36875		658		35.6812		1023.03		291		83		0
2469.6		36799		658		35.5481		1020.92		285		82		0
2469.8		36742		703		35.7822		1094.71		290		82		0
2470		36743		674		35.6354		1047.16		278		83		0
2470.2		36814		767		35.6503		1191.92		300		83		0
2470.4		36840		769		35.7497		1196.88		289		82		0
2470.6		36912		710		35.7837		1105.64		293		80		0
2470.8		36936		760		35.7028		1182.01		294		82		0
2471		36983		712		35.7825		1108.73		288		83		0
2471.2		37008		673		35.8066		1048.39		285		83		0
2471.4		37021		681		35.7764		1060.36		289		84		0
2471.6		37055		693		35.711		1077.95		298		85		0
2471.8		37065		694		35.8082		1081.13		285		81		0
2472		37071		752		35.8155		1171.62		280		81		0
2472.2		37079		728		35.8537		1134.91		289		83		0
2472.4		37103		763		35.8142		1188.74		300		82		0
2472.6		37123		783		35.9706		1222.88		286		84		0
2472.8		37127		795		35.6619		1235.66		303		85		0
2473		37105		861		36.0015		1345.34		315		84		0
2473.2		37116		813		35.9022		1268.38		292		82		0
2473.4		37116		862		35.9443		1345.7		291		83		0
2473.6		37080		880		35.7352		1369.33		300		84		0
2473.8		37086		881		35.8971		1374.35		284		83		0
2474		37069		918		36.1431		1437.59		301		82		0
2474.2		37057		885		35.989		1382.57		295		82		0
2474.4		37044		904		35.854		1409.28		289		84		0
2474.6		37046		901		35.9393		1406.48		295		85		0
2474.8		37037		953		36.0367		1489.92		290		84		0
2475		37041		970		36.1484		1519.15		299		85		0
2475.2		37023		954		36.0317		1491.36		282		84		0
2475.4		37050		914		36.0676		1429.63		290		84		0
2475.6		37036		976		36.1348		1528.22		297		82		0
2475.8		37063		1011		36.2683		1586.34		277		84		0
2476		37029		1047		36.0884		1638.2		296		83		0
2476.2		37012		1091		36.2226		1710.64		294		84		0
2476.4		37004		1053		36.2206		1651		282		85		0
2476.6		36989		1083		36.3225		1700.76		291		82		0
2476.8		36951		1063		36.3535		1670.16		287		82		0
2477		36963		1154		36.3308		1812.49		299		82		0
2477.2		36916		1125		36.421		1769.45		295		82		0
2477.4		36947		1141		36.4036		1794.13		283		84		0
2477.6		36931		1124		36.3692		1766.44		304		85		0
2477.8		36928		1092		36.2553		1713.08		278		83		0
2478		36953		1091		36.3361		1713.69		294		81		0
2478.2		36952		1149		36.3454		1805.05		288		82		0
2478.4		36949		1086		36.3904		1707.29		271		81		0
2478.6		36928		1145		36.4297		1801.15		288		83		0
2478.8		36960		1102		36.6218		1738.77		282		84		0
2479		36945		1097		36.5439		1728.75		287		82		0
2479.2		36945		1107		36.469		1742.46		293		82		0
2479.4		36922		1136		36.435		1787.15		283		82		0
2479.6		36958		1156		36.5247		1821.18		294		83		0
2479.8		36952		1149		36.6428		1813.53		299		81		0
2480		36925		1253		36.7973		1982.51		289		84		0
2480.2		36932		1293		36.856		2047.7		270		84		0
2480.4		36934		1239		36.8891		1963.21		298		83		0
2480.6		36929		1322		36.9439		2096.55		281		82		0
2480.8		36934		1331		36.8938		2109.14		302		83		0
2481		36925		1436		37.0422		2280.89		285		84		0
2481.2		36932		1509		37.0548		2397.32		293		84		0
2481.4		36952		1581		37.2717		2520.39		285		82		0
2481.6		36948		1548		37.3091		2469.26		286		82		0
2481.8		36968		1560		37.4731		2494.92		299		81		0
2482		36951		1590		37.4997		2543.99		294		82		0
2482.2		36976		1567		37.6919		2514.92		289		81		0
2482.4		36974		1535		37.7218		2464.75		285		82		0
2482.6		37009		1493		37.9494		2406.1		285		84		0
2482.8		37032		1527		37.8242		2455.94		283		83		0
2483		37034		1405		37.6794		2254.47		281		81		0
2483.2		37015		1436		37.8864		2311.89		288		82		0
2483.4		37146		1543		38.1733		2495.68		294		81		0
2483.6		37208		1501		38.2275		2429.88		270		81		0
2483.8		37219		1468		38.5246		2387.95		278		82		0
2484		37227		1569		38.6072		2555.68		288		83		0
2484.2		37237		1524		38.6298		2483.29		309		84		0
2484.4		37253		1564		38.7556		2553.7		277		84		0
2484.6		37259		1569		38.7674		2562.36		301		83		0
2484.8		37260		1600		38.9357		2620.19		291		82		0
2485		37242		1605		39.1037		2635.63		289		82		0
2485.2		37241		1618		39.2692		2664.22		295		81		0
2485.4		37262		1762		39.4183		2908.47		293		84		0
2485.6		37262		1670		39.693		2769.16		286		83		0
2485.8		37244		1731		39.6787		2869.63		281		83		0
2486		37229		1697		39.7334		2815.82		285		82		0
2486.2		37232		1752		39.9656		2918.33		291		81		0
2486.4		37242		1723		39.9421		2868.9		283		83		0
2486.6		37200		1879		40.1273		3138.32		299		82		0
2486.8		37236		1818		40.3588		3048.23		292		82		0
2487		37234		1848		40.7699		3120.03		281		83		0
2487.2		37235		1930		40.9461		3268.2		276		82		0
2487.4		37250		1928		41.006		3268.13		277		82		0
2487.6		37241		1999		41.3826		3410.25		277		83		0
2487.8		37250		1973		41.9108		3396.5		288		84		0
2489		37275		2394		44.6627		4326.19		295		84		0
2490		37372		3015		50.0161		6031.95		282		82		0
2491		37365		3405		54.6524		7508.66		286		81		0
2492		37301		3340		54.7252		7377.17		260		82		0
2493		37311		3415		56.7293		7892.18		291		85		0
2494		37351		3595		59.7348		8928.32		289		83		0
2495		37315		3784		62.469		10082.3		279		84		0
2496		37340		7838		68.6968		25039		292		83		0
2497		37344		16212		74.0224		62407.6		303		81		0
2498		37334		8416		72.2245		30300.1		273		81		0
2499		37389		4264		71.2508		14831.7		287		84		0
2500		37422		4765		77.2391		20935		290		84		0
2501		37419		8823		84.3004		56199.1		290		81		0
2502		37405		13689		86.5052		101439		285		83		0
2503		37420		7188		85.642		50062.5		277		80		0
2504		37450		3912		81.2047		20813.7		285		83		0
2505		37464		2158		71.6285		7606.22		273		84		0
2506		37431		2021		67.7564		6267.91		283		82		0
2507		37463		2031		68.2551		6397.87		293		82		0
2508		37472		2173		66.95		6574.9		280		83		0
2509		37557		1758		59.2179		4310.72		285		83		0
2510		37569		1523		54.2721		3330.57		279		84		0
2511		37552		1385		49.7279		2755.01		280		82		0
2512		37572		1258		47.0736		2376.88		283		82		0
2513		37567		1193		46.454		2227.99		288		81		0
2514		37526		1088		45.538		1997.72		285		83		0
2515		37524		1054		45.2922		1926.6		272		85		0
2516		37531		1164		47.242		2206.3		268		83		0
2517		37547		1108		48.1248		2135.9		288		84		0
2518		37596		1153		49.0668		2263.75		272		81		0
2519		37585		1140		49.963		2278.32		292		82		0
2520		37600		1132		50.7995		2300.79		293		81		0
2521		37558		1146		52.2806		2401.54		268		84		0
2522		37514		1128		53.6147		2431.8		274		83		0
2523		37479		1100		53.1733		2349.09		295		84		0
2524		37529		1079		54.0674		2349.09		292		81		0
