# XAS / LUCIA / SOLEIL : 
# Date : sam. 29 mai 2021
#
# TARGET : GFL_DR22_02_03_S_pt4
# Total number of scan(s) : 1
# Scan N° : 1
# Coordinates : 
#               Horizontal : 1573.04
#               Vertical : -9820.41
#               Depth : 9059.7
#               Rotation : 5.002
# ROI window : 
#               ROI_inf : 490
#               ROI_sup : 525
#
# Start of this scan : 08:24:24
# End of this scan : 08:31:02
#
# I0 current at start (µA) : 0
# USER COMMENTS : 
# 
# EXPERIMENTAL CONFIGURATION : 
# Undulator Harmonic : 5       Offset : nan
# Undulator Polarization : 0
# Low pass filter angle (°) : 0.800863         translation (µm) : -354
# Monochromator Crystal : 1: Si 111
#
# SCAN : 
# Range		From(eV)	To(eV)		Step(eV)	Time(sec)
## 1		2455		2465		1		1
## 2		2465.2		2488		0.2		1
## 3		2489		2525		1		1
#
# Energy	Io		FY		DeadTime		FY_c		TEY		It		Ctr4
2455		36597		200		25.4214		268.173		212		86		0
2456		36709		254		25.6443		341.601		207		85		0
2457		36795		234		25.6586		314.764		205		83		0
2458		36801		213		25.5925		286.261		267		85		0
2459		36805		246		25.775		331.425		224		84		0
2460		36822		232		25.6245		311.931		220		85		0
2461		36827		233		25.8076		314.048		205		87		0
2462		36861		211		25.7293		284.096		210		87		0
2463		36888		234		25.6493		314.725		204		86		0
2464		36903		276		25.7576		371.755		203		85		0
2465		36880		321		25.6966		432.013		202		84		0
2465.2		36892		420		25.8789		566.64		199		85		0
2465.4		36900		337		25.8318		454.373		191		88		0
2465.6		36905		412		25.7879		555.166		195		87		0
2465.8		36903		459		25.8353		618.893		205		86		0
2466		36907		482		25.5933		647.791		220		85		0
2466.2		36881		534		25.5804		717.553		201		85		0
2466.4		36927		599		25.8063		807.347		205		84		0
2466.6		36914		612		25.8405		825.249		203		85		0
2466.8		36894		659		25.7591		887.651		203		86		0
2467		37031		652		25.9126		880.041		208		84		0
2467.2		37008		644		25.9874		870.122		207		84		0
2467.4		37005		643		25.7434		865.916		207		86		0
2467.6		36975		702		25.7752		945.775		199		87		0
2467.8		36998		801		25.5968		1076.57		193		88		0
2468		36969		898		25.9246		1212.28		201		88		0
2468.2		36919		1071		25.7868		1443.14		206		85		0
2468.4		36904		1322		25.9092		1784.3		204		84		0
2468.6		36853		1420		25.6103		1908.87		203		84		0
2468.8		36801		1475		25.9305		1991.37		197		86		0
2469		36685		1521		25.6815		2046.6		200		85		0
2469.2		36606		1486		25.5121		1994.95		205		84		0
2469.4		36508		1464		25.6199		1968.27		196		86		0
2469.6		36439		1468		25.4335		1968.71		186		86		0
2469.8		36362		1525		25.602		2049.79		193		87		0
2470		36377		1600		25.5768		2149.87		206		87		0
2470.2		36399		1719		25.7686		2315.73		205		84		0
2470.4		36448		1812		25.7713		2441.1		203		83		0
2470.6		36474		1900		25.6416		2555.19		188		85		0
2470.8		36556		1990		25.8474		2683.66		200		86		0
2471		36571		2066		25.779		2783.58		209		86		0
2471.2		36568		2140		25.9175		2888.67		174		86		0
2471.4		36590		2163		25.69		2910.78		196		85		0
2471.6		36582		2371		25.804		3195.59		189		85		0
2471.8		36609		2382		25.8306		3211.57		204		85		0
2472		36610		2442		25.8867		3294.95		197		85		0
2472.2		36630		2651		25.7565		3570.68		213		85		0
2472.4		36686		2825		25.7024		3802.28		192		86		0
2472.6		36665		3194		25.7343		4300.77		198		87		0
2472.8		36667		3399		25.8365		4583.12		201		87		0
2473		36655		3428		25.8987		4626.1		199		85		0
2473.2		36653		3758		26.0693		5083.14		196		85		0
2473.4		36647		3856		26.1687		5222.72		196		85		0
2473.6		36617		3857		26.0486		5215.59		214		85		0
2473.8		36644		3962		25.9465		5350.18		199		86		0
2474		36610		4082		25.9966		5515.97		182		87		0
2474.2		36618		4162		25.8697		5614.44		202		86		0
2474.4		36574		4251		25.8618		5733.89		205		85		0
2474.6		36579		4477		26.077		6056.3		209		86		0
2474.8		36583		4456		25.9654		6018.81		190		84		0
2475		36580		4533		26.0265		6127.87		188		86		0
2475.2		36578		4632		25.7586		6239.11		194		87		0
2475.4		36556		4756		25.9455		6422.3		197		86		0
2475.6		36544		4816		25.9428		6503.08		198		86		0
2475.8		36544		4750		25.999		6418.83		186		84		0
2476		36516		4815		26.0129		6507.89		200		84		0
2476.2		36546		4777		25.9135		6447.87		198		85		0
2476.4		36533		4711		26.1452		6378.73		192		86		0
2476.6		36528		4688		26.0217		6336.99		198		86		0
2476.8		36516		4641		25.9997		6271.6		196		87		0
2477		36507		4518		26.0004		6105.44		189		88		0
2477.2		36489		4440		25.97		5997.57		205		87		0
2477.4		36494		4539		25.9708		6131.36		198		87		0
2477.6		36453		4251		25.6837		5720.15		193		86		0
2477.8		36470		4361		26.0376		5896.24		186		86		0
2478		36468		4229		25.8625		5704.26		203		87		0
2478.2		36479		4092		25.7715		5512.71		181		87		0
2478.4		36470		4156		25.8519		5605		214		86		0
2478.6		36485		4042		25.9224		5456.44		182		85		0
2478.8		36481		3935		25.81		5303.95		188		85		0
2479		36477		3857		25.6091		5184.77		197		84		0
2479.2		36486		3866		25.9428		5220.29		194		87		0
2479.4		36475		3827		25.7156		5151.82		203		86		0
2479.6		36478		3770		25.5337		5062.69		210		87		0
2479.8		36462		3819		25.9115		5154.65		198		86		0
2480		36455		3737		25.8114		5037.16		189		84		0
2480.2		36436		3808		25.6448		5121.36		198		86		0
2480.4		36578		3757		25.8278		5065.24		189		87		0
2480.6		36608		3874		25.6875		5213.12		196		87		0
2480.8		36592		3866		25.9322		5219.54		188		88		0
2481		36593		3933		25.9349		5310.19		182		85		0
2481.2		36624		4122		26.0118		5571.16		196		84		0
2481.4		36600		4183		25.8727		5643		193		85		0
2481.6		36618		4129		25.8745		5570.28		199		87		0
2481.8		36611		4339		25.9216		5857.31		196		86		0
2482		36624		4081		25.8752		5505.58		208		86		0
2482.2		36649		3852		25.8835		5197.22		184		86		0
2482.4		36619		3693		25.8149		4978.09		192		84		0
2482.6		36642		3662		25.8405		4938		184		85		0
2482.8		36651		3431		25.8854		4629.32		196		88		0
2483		36672		3305		25.7677		4452.24		190		87		0
2483.2		36638		3194		25.7112		4299.44		196		87		0
2483.4		36680		3105		25.6796		4177.85		194		86		0
2483.6		36687		3076		25.8036		4145.75		188		84		0
2483.8		36696		3011		25.8863		4062.68		212		84		0
2484		36736		3015		25.7913		4062.87		216		84		0
2484.2		36717		2860		25.8751		3858.35		203		84		0
2484.4		36731		2804		25.7227		3775.04		188		87		0
2484.6		36730		2746		25.9607		3708.84		201		88		0
2484.8		36726		2892		25.8173		3898.48		178		87		0
2485		36712		2803		25.736		3774.37		197		88		0
2485.2		36716		2786		25.6741		3748.36		195		85		0
2485.4		36721		2900		25.9413		3915.81		192		84		0
2485.6		36726		2797		25.5742		3758.11		184		84		0
2485.8		36707		2814		25.784		3791.64		190		86		0
2486		36709		2832		25.7424		3813.75		184		86		0
2486.2		36691		2823		25.8409		3806.68		204		86		0
2486.4		36712		2839		25.6488		3818.36		187		85		0
2486.6		36700		2835		25.7421		3817.78		192		86		0
2486.8		36711		2821		25.5899		3791.15		181		88		0
2487		36697		2733		25.7819		3682.39		190		86		0
2487.2		36709		2804		25.6222		3769.94		203		85		0
2487.4		36669		2727		25.643		3667.44		192		84		0
2487.6		36681		2752		25.7382		3705.81		193		85		0
2487.8		36673		2839		25.6693		3819.42		187		86		0
2488		36681		2810		25.8285		3788.52		195		86		0
2489		36734		2800		25.7321		3770.13		192		85		0
2490		36792		2997		25.6558		4031.25		199		84		0
2491		36793		2932		25.7764		3950.23		191		84		0
2492		36780		3080		25.642		4142.13		187		85		0
2493		36791		3129		25.7759		4215.61		194		85		0
2494		36809		3197		25.7617		4306.4		190		86		0
2495		36785		3168		25.7979		4269.42		194		87		0
2496		36798		3242		25.6357		4359.62		198		86		0
2497		36813		3254		25.9261		4392.91		183		87		0
2498		36837		3291		25.8786		4440.01		195		84		0
2499		36857		3190		25.8874		4304.26		193		84		0
2500		36877		3289		25.7104		4427.27		185		83		0
2501		36904		3348		25.7524		4509.23		197		86		0
2502		36909		3293		25.9513		4447.07		180		88		0
2503		36869		3242		25.649		4360.4		199		85		0
2504		36874		3158		25.792		4255.6		179		85		0
2505		36915		3134		25.8584		4227.05		169		83		0
2506		36924		3123		25.8198		4210.02		191		86		0
2507		36943		3050		25.7871		4109.8		177		86		0
2508		36949		2932		25.8263		3952.88		182		88		0
2509		37049		2967		25.753		3996.12		199		86		0
2510		37058		2942		25.9132		3971.02		184		84		0
2511		37033		2947		25.7469		3968.86		199		85		0
2512		36987		2902		25.8004		3911.07		174		86		0
2513		36990		2945		25.5671		3956.58		188		86		0
2514		36955		2856		25.695		3843.62		187		85		0
2515		36961		2893		25.8316		3900.58		195		85		0
2516		36991		2942		25.6297		3955.88		191		85		0
2517		36984		3002		25.7176		4041.34		176		86		0
2518		36981		2896		25.756		3900.65		190		84		0
2519		37012		2836		25.5842		3811.02		178		86		0
2520		37052		2855		25.7924		3847.32		192		85		0
2521		37150		2946		25.7369		3966.98		189		86		0
2522		37147		2923		25.5875		3928.1		185		87		0
2523		37081		2960		25.781		3988.2		186		85		0
2524		37154		2881		25.6614		3875.51		191		84		0
