# XAS / LUCIA / SOLEIL : 
# Date : sam. 29 mai 2021
#
# TARGET : GFL_PL_11_07_S_carto2b_vert_pt16
# Total number of scan(s) : 2
# Scan N° : 2
# Coordinates : 
#               Horizontal : -52
#               Vertical : 105
#               Depth : 9059.8
#               Rotation : 5.002
# ROI window : 
#               ROI_inf : 490
#               ROI_sup : 525
#
# Start of this scan : 02:33:01
# End of this scan : 02:39:26
#
# I0 current at start (µA) : 0
# USER COMMENTS : 
# 
# EXPERIMENTAL CONFIGURATION : 
# Undulator Harmonic : 5       Offset : nan
# Undulator Polarization : 0
# Low pass filter angle (°) : 0.800959         translation (µm) : -354.5
# Monochromator Crystal : 1: Si 111
#
# SCAN : 
# Range		From(eV)	To(eV)		Step(eV)	Time(sec)
## 1		2455		2465		1		1
## 2		2465.2		2488		0.2		1
## 3		2489		2525		1		1
#
# Energy	Io		FY		DeadTime		FY_c		TEY		It		Ctr4
2455		36959		185		28.8649		260.069		317		85		0
2456		37064		209		28.9708		294.245		296		87		0
2457		37151		192		29.0302		270.538		297		85		0
2458		37136		181		29.2038		255.663		290		85		0
2459		37116		209		28.888		293.903		287		83		0
2460		37122		230		28.9921		323.908		291		85		0
2461		37136		208		28.9352		292.691		286		86		0
2462		37145		245		28.9702		344.926		282		84		0
2463		37156		235		28.9597		330.798		284		83		0
2464		37193		271		28.8666		380.974		288		84		0
2465		37159		313		29.0059		440.881		278		85		0
2465.2		37180		358		29.0268		504.416		275		86		0
2465.4		37174		345		29.2156		487.396		281		87		0
2465.6		37180		410		29.1551		578.729		274		86		0
2465.8		37171		451		28.9778		635.013		271		86		0
2466		37187		487		28.9793		685.716		293		85		0
2466.2		37160		527		28.9594		741.829		275		84		0
2466.4		37195		529		28.9047		744.072		277		84		0
2466.6		37173		583		29.0885		822.152		277		84		0
2466.8		37176		632		29.054		890.818		281		85		0
2467		37174		584		28.9749		822.245		278		86		0
2467.2		37147		659		28.8027		925.597		276		85		0
2467.4		37143		719		29.0774		1013.78		287		84		0
2467.6		37127		778		28.9925		1095.66		281		85		0
2467.8		37098		880		28.8953		1237.61		275		84		0
2468		37096		1114		28.9252		1567.36		269		86		0
2468.2		37045		1414		29.0169		1992.02		290		86		0
2468.4		37046		1864		29.0904		2628.7		264		86		0
2468.6		36990		2549		29.0711		3593.74		281		87		0
2468.8		36921		3357		29.3268		4750.04		285		84		0
2469		36828		4197		29.3483		5940.41		288		83		0
2469.2		36758		4794		29.23		6774.06		276		83		0
2469.4		36634		5117		29.0765		7214.82		261		85		0
2469.6		36570		5472		29.2469		7733.94		273		86		0
2469.8		36501		5560		29.132		7845.58		265		86		0
2470		36525		5583		29.1886		7884.32		269		84		0
2470.2		36541		5527		29.237		7810.58		273		84		0
2470.4		36572		5364		29.1255		7568.31		283		84		0
2470.6		36633		5145		29.0765		7254.3		272		86		0
2470.8		36659		4801		29.3268		6793.24		276		85		0
2471		36705		4473		29.234		6320.83		264		87		0
2471.2		36701		4284		29.0678		6039.57		282		84		0
2471.4		36718		4132		29.0069		5820.29		274		84		0
2471.6		36712		3944		29.054		5559.16		281		86		0
2471.8		36733		3991		29.134		5631.75		261		85		0
2472		36750		3949		29.0822		5568.42		285		85		0
2472.2		36747		4048		29.1171		5710.83		274		85		0
2472.4		36793		4237		29.1491		5980.16		273		84		0
2472.6		36783		4456		29.0548		6280.91		280		84		0
2472.8		36793		4703		29.0564		6629.21		273		83		0
2473		36787		5098		29.0623		7186.59		283		87		0
2473.2		36771		5245		29.1654		7404.57		260		86		0
2473.4		36786		5452		29.2535		7706.39		268		87		0
2473.6		36770		5711		29.167		8062.63		275		84		0
2473.8		36772		5859		29.334		8291.12		275		83		0
2474		36749		6327		29.4334		8966		270		84		0
2474.2		36778		6430		29.4367		9112.38		275		85		0
2474.4		36739		6581		29.3403		9313.65		281		86		0
2474.6		36742		6723		29.388		9521.04		268		87		0
2474.8		36748		6885		29.3777		9749.04		272		86		0
2475		36739		7145		29.4601		10129		268		85		0
2475.2		36734		7235		29.4435		10254.2		271		85		0
2475.4		36691		7316		29.4901		10375.8		281		85		0
2475.6		36714		7446		29.5875		10574.8		279		85		0
2475.8		36862		7564		29.7336		10764.7		269		86		0
2476		36854		7566		29.4785		10728.6		268		85		0
2476.2		36837		7876		29.4428		11162.6		270		86		0
2476.4		36828		7697		29.6481		10940.7		278		84		0
2476.6		36796		7786		29.5011		11044.1		263		83		0
2476.8		36793		7884		29.797		11230.3		276		84		0
2477		36796		7855		29.5813		11154.7		268		85		0
2477.2		36761		7788		29.6643		11072.6		283		87		0
2477.4		36782		7841		29.5755		11133.9		279		87		0
2477.6		36732		7718		29.5626		10957.2		268		86		0
2477.8		36735		7515		29.6027		10675.1		259		84		0
2478		36728		7638		29.4586		10827.7		277		85		0
2478.2		36760		7480		29.4725		10605.8		263		87		0
2478.4		36753		7343		29.2876		10384.3		271		86		0
2478.6		36756		7112		29.5885		10100.6		281		85		0
2478.8		36774		7058		29.6159		10027.8		271		84		0
2479		36772		7090		29.433		10047.2		273		84		0
2479.2		36762		7069		29.2043		9985.07		270		85		0
2479.4		36767		6874		29.329		9726.76		280		86		0
2479.6		36753		6813		29.3844		9648		270		85		0
2479.8		36764		6799		29.4318		9634.65		271		86		0
2480		36731		6533		29.1716		9223.69		266		86		0
2480.2		36728		6387		29.334		9038.3		287		85		0
2480.4		36697		6568		29.2351		9281.43		282		84		0
2480.6		36732		6618		29.5324		9391.55		275		85		0
2480.8		36707		6536		29.3451		9250.59		265		86		0
2481		36729		6653		29.3882		9421.94		252		87		0
2481.2		36716		6871		29.4781		9743.07		267		86		0
2481.4		36754		6958		29.511		9871.04		270		85		0
2481.6		36720		7022		29.1975		9917.73		280		84		0
2481.8		36730		6859		29.3362		9706.52		268		84		0
2482		36745		6837		29.5172		9700.23		268		85		0
2482.2		36758		6550		29.3806		9275.08		270		83		0
2482.4		36748		6369		29.3828		9019.06		269		84		0
2482.6		36773		6301		29.4747		8934.38		260		85		0
2482.8		36777		5958		29.2415		8420.19		274		87		0
2483		36799		5751		29.2029		8123.22		265		87		0
2483.2		36808		5755		29.2874		8138.57		268		87		0
2483.4		36811		5559		29.2753		7860.05		261		85		0
2483.6		36815		5491		29.1372		7748.77		262		84		0
2483.8		36836		5402		29.2952		7640.22		269		84		0
2484		36847		5318		29.1951		7510.78		270		85		0
2484.2		36834		5316		29.2047		7508.97		273		84		0
2484.4		36857		5517		29.1436		7786.17		271		85		0
2484.6		36839		5259		29.2675		7435.05		264		86		0
2484.8		36843		5203		29.1794		7346.73		271		85		0
2485		36831		5238		29.142		7392.25		275		85		0
2485.2		36840		5233		29.0685		7377.54		271		84		0
2485.4		36840		5370		29.2695		7592.2		264		83		0
2485.6		36861		5367		29.347		7596.28		272		84		0
2485.8		36828		5236		29.0221		7376.94		273		85		0
2486		36845		5326		29.2276		7525.54		269		85		0
2486.2		36837		5349		29.0505		7539.16		266		86		0
2486.4		36840		5260		29.1834		7427.64		278		87		0
2486.6		36819		5402		29.1132		7620.6		274		86		0
2486.8		36837		5304		29.2986		7501.97		276		85		0
2487		36836		5342		29.0052		7524.49		257		85		0
2487.2		36829		5334		29.0461		7517.56		257		87		0
2487.4		36814		5224		29.1739		7375.81		264		86		0
2487.6		36789		5421		29.0721		7642.97		265		85		0
2487.8		36806		5254		29.0278		7402.9		269		86		0
2488		36817		5290		29.1633		7467.88		274		84		0
2489		36866		5204		29.2637		7356.9		265		84		0
2490		36897		5313		29.1152		7495.26		268		85		0
2491		36904		5266		29.1038		7427.76		265		86		0
2492		36885		5278		29.2423		7459.26		253		86		0
2493		36860		5146		29.014		7249.32		276		86		0
2494		36868		5164		29.0503		7278.39		266		84		0
2495		36870		5260		29.1622		7425.42		272		84		0
2496		36875		5338		29.1021		7529.14		264		87		0
2497		36988		5540		29.2612		7831.63		253		87		0
2498		37047		5573		29.2554		7877.63		273		85		0
2499		37064		5556		29.2812		7856.46		271		85		0
2500		37098		5599		29.2916		7918.44		269		85		0
2501		37120		5746		29.2865		8125.74		260		83		0
2502		37119		5629		29.2163		7952.39		269		87		0
2503		37113		5531		29.1474		7806.35		261		86		0
2504		37121		5731		29.2979		8105.84		263		85		0
2505		37138		5698		29.1593		8043.4		260		84		0
2506		37129		5797		29.1326		8180.07		271		85		0
2507		37159		5704		29.2297		8059.88		274		84		0
2508		37162		5601		29.1744		7908.16		267		87		0
2509		37252		5683		29.395		8049.01		272		84		0
2510		37289		5579		29.2431		7884.75		261		85		0
2511		37291		5502		29.0836		7758.44		264		87		0
2512		37234		5405		29.0751		7620.74		255		86		0
2513		37241		5303		29.1814		7488.14		261		85		0
2514		37198		5350		29.1716		7553.47		262		86		0
2515		37216		5263		28.9064		7402.91		257		85		0
2516		37239		5135		28.8925		7221.46		271		85		0
2517		37207		4999		28.9428		7035.18		270		86		0
2518		37198		4994		29.1058		7044.3		277		84		0
2519		37239		4950		29.0272		6974.5		265		85		0
2520		37241		4999		29.124		7053.16		267		84		0
2521		37223		4975		29.0183		7008.85		274		84		0
2522		37198		4871		28.9809		6858.71		266		85		0
2523		37136		4997		28.9108		7029.2		259		87		0
2524		37177		4999		28.9921		7040.06		255		86		0
