# XAS / LUCIA / SOLEIL : 
# Date : sam. 29 mai 2021
#
# TARGET : GFL_DR22_02_03_S_pt2
# Total number of scan(s) : 1
# Scan N° : 1
# Coordinates : 
#               Horizontal : 2339.47
#               Vertical : -9445.39
#               Depth : 9059.7
#               Rotation : 5.002
# ROI window : 
#               ROI_inf : 490
#               ROI_sup : 525
#
# Start of this scan : 08:11:09
# End of this scan : 08:17:48
#
# I0 current at start (µA) : 0
# USER COMMENTS : 
# 
# EXPERIMENTAL CONFIGURATION : 
# Undulator Harmonic : 5       Offset : nan
# Undulator Polarization : 0
# Low pass filter angle (°) : 0.800863         translation (µm) : -354
# Monochromator Crystal : 1: Si 111
#
# SCAN : 
# Range		From(eV)	To(eV)		Step(eV)	Time(sec)
## 1		2455		2465		1		1
## 2		2465.2		2488		0.2		1
## 3		2489		2525		1		1
#
# Energy	Io		FY		DeadTime		FY_c		TEY		It		Ctr4
2455		36590		225		25.6884		302.779		260		85		0
2456		36721		200		25.5092		268.49		235		85		0
2457		36768		227		25.7283		305.635		243		83		0
2458		36791		211		25.8851		284.693		248		85		0
2459		36780		201		25.6593		270.377		242		83		0
2460		36805		239		25.6658		321.521		242		85		0
2461		36812		206		25.73		277.366		233		86		0
2462		36844		223		25.7838		300.473		238		86		0
2463		36844		252		25.7339		339.32		252		86		0
2464		36862		292		25.7682		393.362		227		85		0
2465		36851		318		25.7024		428.008		241		83		0
2465.2		36882		358		25.7802		482.351		230		84		0
2465.4		36864		391		25.9738		528.192		235		86		0
2465.6		36876		388		25.9572		524.022		226		87		0
2465.8		36867		478		25.7496		643.767		207		87		0
2466		36864		520		25.9773		702.487		225		87		0
2466.2		36868		559		25.8055		753.425		232		85		0
2466.4		36894		597		25.8865		805.521		235		82		0
2466.6		36868		589		25.8967		794.836		229		83		0
2466.8		36882		647		25.9847		874.144		238		84		0
2467		36849		624		25.9475		842.645		236		85		0
2467.2		36872		622		25.8388		838.714		229		84		0
2467.4		36975		627		25.9931		847.218		225		85		0
2467.6		36986		677		25.9548		914.307		233		85		0
2467.8		36964		739		25.9427		997.876		235		87		0
2468		36972		1024		26.122		1386.07		233		87		0
2468.2		36917		1118		25.9137		1509.05		222		87		0
2468.4		36884		1295		25.8838		1747.26		228		84		0
2468.6		36826		1423		25.7654		1916.9		238		86		0
2468.8		36802		1515		25.7617		2040.72		238		85		0
2469		36659		1566		25.9139		2113.76		235		82		0
2469.2		36587		1584		25.605		2129.18		229		86		0
2469.4		36492		1475		25.8614		1989.52		226		86		0
2469.6		36437		1633		25.5927		2194.68		228		84		0
2469.8		36370		1606		25.6391		2159.74		221		84		0
2470		36384		1618		25.6228		2175.4		232		84		0
2470.2		36418		1742		25.6409		2342.68		224		85		0
2470.4		36439		1750		25.8352		2359.61		229		86		0
2470.6		36479		1949		25.7302		2624.22		229		86		0
2470.8		36529		2032		25.9528		2744.2		244		86		0
2471		36564		2070		25.8579		2791.94		237		85		0
2471.2		36578		2196		25.869		2962.32		227		84		0
2471.4		36576		2247		25.8538		3030.5		237		85		0
2471.6		36599		2291		25.9419		3093.52		219		87		0
2471.8		36597		2384		25.9009		3217.31		223		87		0
2472		36615		2624		25.7224		3532.69		230		85		0
2472.2		36629		2814		25.8203		3793.49		232		84		0
2472.4		36670		2918		25.9665		3941.46		232		83		0
2472.6		36681		3050		25.8215		4111.7		237		85		0
2472.8		36688		3285		25.8164		4428.2		222		87		0
2473		36670		3527		25.9999		4766.21		230		86		0
2473.2		36660		3760		26.0929		5087.47		223		86		0
2473.4		36648		3861		25.9582		5214.62		232		86		0
2473.6		36636		3912		25.8889		5278.56		234		84		0
2473.8		36636		4113		25.9874		5557.16		243		84		0
2474		36624		4131		26.2447		5600.95		230		85		0
2474.2		36618		4042		25.9261		5456.71		229		86		0
2474.4		36572		4212		26.062		5696.66		226		86		0
2474.6		36590		4346		26.068		5878.37		229		85		0
2474.8		36574		4441		26.0286		6003.67		226		85		0
2475		36585		4508		26.1046		6100.51		230		86		0
2475.2		36566		4654		26.176		6304.18		222		87		0
2475.4		36554		4845		26.1856		6563.76		227		85		0
2475.6		36540		4821		26.2828		6539.85		227		84		0
2475.8		36559		4865		26.2302		6594.84		225		84		0
2476		36527		4836		26.0618		6540.6		234		84		0
2476.2		36529		4818		26.2353		6531.58		221		85		0
2476.4		36514		4844		25.9977		6545.74		225		86		0
2476.6		36512		4730		26.0689		6397.85		233		86		0
2476.8		36499		4620		26.1445		6255.46		235		85		0
2477		36494		4670		26.0116		6311.8		228		84		0
2477.2		36465		4510		26.266		6116.58		213		85		0
2477.4		36483		4576		25.9714		6181.39		234		86		0
2477.6		36443		4377		26.0144		5916.02		221		87		0
2477.8		36439		4305		26.0587		5822.19		233		85		0
2478		36449		4413		25.9795		5961.86		224		84		0
2478.2		36444		4216		25.8791		5688.01		234		85		0
2478.4		36424		4048		25.8901		5462.16		235		84		0
2478.6		36459		4057		25.9584		5479.35		220		86		0
2478.8		36460		3922		25.9471		5296.22		235		86		0
2479		36464		3791		25.9532		5119.73		227		87		0
2479.2		36468		3857		25.78		5196.71		227		85		0
2479.4		36451		3877		25.7509		5221.61		222		83		0
2479.6		36450		3689		25.7129		4965.87		230		84		0
2479.8		36452		3699		25.8004		4985.2		226		84		0
2480		36412		3700		25.7923		4986		227		86		0
2480.2		36418		3756		25.769		5059.88		223		86		0
2480.4		36402		3826		25.8601		5160.52		231		84		0
2480.6		36409		3853		25.9122		5200.58		227		84		0
2480.8		36395		3827		25.9604		5168.85		235		86		0
2481		36422		3924		25.9609		5299.9		233		87		0
2481.2		36414		3985		25.7934		5370.15		210		86		0
2481.4		36589		4246		26.0076		5738.42		236		84		0
2481.6		36581		4217		25.9988		5698.56		225		84		0
2481.8		36599		4110		26.095		5561.19		224		84		0
2482		36605		4096		25.9338		5530.19		228		84		0
2482.2		36617		3980		26.0264		5380.3		224		85		0
2482.4		36605		3783		25.9717		5110.21		221		85		0
2482.6		36605		3564		25.8531		4806.67		225		85		0
2482.8		36647		3426		26.0445		4632.52		220		85		0
2483		36643		3286		25.8008		4428.62		239		85		0
2483.2		36664		3228		25.8702		4354.52		229		85		0
2483.4		36658		3063		25.8705		4131.96		225		86		0
2483.6		36673		3086		25.9079		4165.09		218		86		0
2483.8		36680		2966		25.8229		3998.54		214		86		0
2484		36703		2949		26.0416		3987.38		225		83		0
2484.2		36714		2862		25.9873		3866.91		232		84		0
2484.4		36709		2982		25.7788		4017.72		222		84		0
2484.6		36726		2900		26.0546		3921.81		225		84		0
2484.8		36702		2922		26.0027		3948.79		239		86		0
2485		36704		2879		25.6623		3872.87		226		87		0
2485.2		36679		2890		25.8714		3898.63		228		86		0
2485.4		36702		2842		25.928		3836.81		228		85		0
2485.6		36682		2768		25.9584		3738.44		232		84		0
2485.8		36674		2775		25.7566		3737.71		223		84		0
2486		36696		2742		26.0504		3707.93		238		86		0
2486.2		36686		2865		25.8936		3866.06		220		88		0
2486.4		36687		2910		25.8217		3922.98		219		86		0
2486.6		36679		2842		25.8125		3830.83		231		87		0
2486.8		36688		2750		25.7803		3705.22		231		85		0
2487		36674		2863		25.845		3860.83		233		84		0
2487.2		36704		2850		25.9327		3847.85		232		86		0
2487.4		36651		2885		25.8359		3890.02		229		87		0
2487.6		36675		2822		25.7982		3803.14		229		84		0
2487.8		36672		2788		25.7201		3753.37		221		83		0
2488		36683		2857		25.7904		3849.91		224		85		0
2489		36723		2824		25.9612		3814.22		232		84		0
2490		36773		2917		25.9819		3940.93		224		85		0
2491		36784		2927		25.8579		3947.82		229		85		0
2492		36770		3013		25.8438		4063.05		213		87		0
2493		36780		3093		25.9086		4174.58		230		87		0
2494		36784		3239		25.972		4375.37		227		87		0
2495		36775		3078		25.9793		4158.3		232		84		0
2496		36790		3220		25.8175		4340.64		226		86		0
2497		36797		3199		25.8677		4315.26		228		84		0
2498		36808		3313		25.9473		4473.84		236		85		0
2499		36840		3259		26.0212		4405.31		231		86		0
2500		36873		3291		25.8827		4440.26		229		86		0
2501		36880		3322		25.9042		4483.38		225		84		0
2502		36891		3237		26.0194		4375.47		228		84		0
2503		36861		3194		26.0138		4317.02		225		84		0
2504		36871		3177		25.9588		4290.85		224		85		0
2505		36889		3176		25.7665		4278.39		223		86		0
2506		36898		3134		25.7384		4220.22		216		86		0
2507		36912		3024		25.7987		4075.4		220		84		0
2508		36917		3126		25.8319		4214.75		229		85		0
2509		37013		2968		25.9699		4009.18		222		83		0
2510		37028		3021		25.8641		4074.95		216		84		0
2511		37014		3004		25.9547		4056.98		215		85		0
2512		36973		2912		25.7296		3920.81		228		86		0
2513		36964		2877		25.6566		3869.88		227		85		0
2514		36947		2983		25.9755		4029.74		227		83		0
2515		36954		2973		25.7596		4004.56		235		85		0
2516		36969		2959		25.8789		3992.12		221		83		0
2517		36953		2901		25.7596		3907.57		220		85		0
2518		36971		2993		25.9658		4042.73		230		83		0
2519		36984		2917		25.7874		3930.6		224		85		0
2520		37009		2965		25.7913		3995.49		228		84		0
2521		36971		2843		25.7831		3830.67		220		85		0
2522		37121		2850		25.631		3832.24		225		86		0
2523		37038		2969		25.8041		4001.57		248		87		0
2524		37106		2943		25.7878		3965.66		206		85		0
