# XAS / LUCIA / SOLEIL : 
# Date : ven. 28 mai 2021
#
# TARGET : GFL_PL_11_07_S_carto2b_start
# Total number of scan(s) : 1
# Scan N° : 1
# Coordinates : 
#               Horizontal : -10307.3
#               Vertical : -10372.1
#               Depth : 9059.8
#               Rotation : 5.002
# ROI window : 
#               ROI_inf : 490
#               ROI_sup : 525
#
# Start of this scan : 20:52:25
# End of this scan : 20:58:54
#
# I0 current at start (µA) : 0
# USER COMMENTS : 
# 
# EXPERIMENTAL CONFIGURATION : 
# Undulator Harmonic : 5       Offset : nan
# Undulator Polarization : 0
# Low pass filter angle (°) : 0.800672         translation (µm) : -354.5
# Monochromator Crystal : 1: Si 111
#
# SCAN : 
# Range		From(eV)	To(eV)		Step(eV)	Time(sec)
## 1		2455		2465		1		1
## 2		2465.2		2488		0.2		1
## 3		2489		2525		1		1
#
# Energy	Io		FY		DeadTime		FY_c		TEY		It		Ctr4
2455		38352		189		30.061		270.235		648		84		0
2456		38447		188		30.3071		269.755		613		84		0
2457		38526		204		30.358		292.926		612		84		0
2458		38551		193		30.2308		276.627		614		85		0
2459		38557		204		30.3289		292.804		615		84		0
2460		38561		173		30.2919		248.178		629		86		0
2461		38627		208		30.2498		298.207		620		84		0
2462		38629		182		30.4468		261.67		640		85		0
2463		38654		181		30.3702		259.946		651		83		0
2464		38631		209		30.4095		300.328		636		83		0
2465		38625		235		30.2274		336.808		638		84		0
2465.2		38615		254		30.448		365.195		639		85		0
2465.4		38607		278		30.2105		398.341		628		84		0
2465.6		38611		310		30.2349		444.349		636		85		0
2465.8		38593		316		30.3279		453.553		633		84		0
2466		38563		350		30.3593		502.58		624		83		0
2466.2		38558		411		30.2274		589.057		631		85		0
2466.4		38562		434		30.4065		623.621		635		85		0
2466.6		38586		411		30.353		590.119		627		83		0
2466.8		38607		428		30.0411		611.788		615		83		0
2467		38633		435		30.2792		623.917		612		83		0
2467.2		38640		480		30.2736		688.405		623		83		0
2467.4		38640		422		30.1144		603.844		612		86		0
2467.6		38618		451		30.203		646.159		606		86		0
2467.8		38626		493		30.2809		707.123		619		86		0
2468		38572		567		30.0231		810.267		621		83		0
2468.2		38528		654		30.3167		938.532		614		83		0
2468.4		38519		708		30.1593		1013.74		621		82		0
2468.6		38473		857		30.3086		1229.71		617		86		0
2468.8		38411		928		30.3564		1332.5		616		85		0
2469		38325		1176		29.9879		1679.71		618		83		0
2469.2		38225		1251		29.9228		1785.17		613		84		0
2469.4		38117		1429		29.9489		2039.94		616		85		0
2469.6		38056		1539		30.1489		2203.26		606		84		0
2469.8		37971		1606		29.964		2293.11		610		83		0
2470		37960		1678		29.9874		2396.71		627		82		0
2470.2		37989		1791		29.9584		2557.05		632		82		0
2470.4		38010		1852		29.8784		2641.13		601		83		0
2470.6		38064		1769		29.8557		2521.94		611		85		0
2470.8		38094		1931		30.0552		2760.75		611		85		0
2471		38140		1764		30.1641		2525.92		615		84		0
2471.2		38149		1757		30.0666		2512.39		600		83		0
2471.4		38142		1785		30.0383		2551.4		606		82		0
2471.6		38172		1842		30.0186		2632.13		599		86		0
2471.8		38169		1855		30.0778		2652.95		616		85		0
2472		38178		1922		30.0651		2748.27		628		84		0
2472.2		38192		2008		30.0064		2868.83		604		84		0
2472.4		38216		2157		29.9386		3078.73		605		82		0
2472.6		38213		2400		30.1688		3436.86		609		82		0
2472.8		38240		2456		29.9922		3508.18		624		83		0
2473		38211		2620		30.1102		3748.76		618		83		0
2473.2		38234		2825		30.0918		4041.01		597		84		0
2473.4		38234		2802		30.1926		4013.9		607		85		0
2473.6		38232		2860		30.0671		4089.63		611		85		0
2473.8		38253		3080		30.2388		4415.06		603		85		0
2474		38214		3065		30.2653		4395.23		616		84		0
2474.2		38211		3131		30.3167		4493.19		610		82		0
2474.4		38171		3410		30.0105		4872.16		603		81		0
2474.6		38330		3292		30.2924		4722.58		624		85		0
2474.8		38322		3334		30.1455		4772.78		602		85		0
2475		38328		3529		30.2941		5062.7		598		86		0
2475.2		38310		3534		30.33		5072.48		603		83		0
2475.4		38321		3599		30.2427		5159.32		592		83		0
2475.6		38305		3637		30.2159		5211.79		597		83		0
2475.8		38322		3670		30.3122		5266.35		603		84		0
2476		38282		3719		30.1645		5325.37		600		83		0
2476.2		38278		3756		30.3173		5390.15		603		83		0
2476.4		38087		3697		30.0111		5282.27		591		84		0
2476.6		38070		3696		30.0558		5284.21		599		85		0
2476.8		38028		3532		30.1858		5059.14		593		84		0
2477		38085		3743		30.2336		5365.05		605		82		0
2477.2		38244		3732		30.1677		5344.23		599		85		0
2477.4		38389		3584		30.3955		5149.09		586		86		0
2477.6		38206		3446		30.3708		4949.07		596		86		0
2477.8		38254		3485		30.3385		5002.76		588		84		0
2478		38213		3419		30.3307		4907.47		593		83		0
2478.2		38256		3466		30.2347		4968.09		598		82		0
2478.4		38334		3258		30.1623		4665.1		604		82		0
2478.6		38206		3155		30.2163		4521.11		597		82		0
2478.8		38248		3097		30.2189		4438.17		599		82		0
2479		38305		3079		30.0608		4402.39		592		84		0
2479.2		38237		3045		30.1151		4357.16		583		84		0
2479.4		38190		3003		30.0922		4295.66		597		83		0
2479.6		38222		3015		30.1844		4318.52		590		82		0
2479.8		38221		2929		30.1963		4196.05		599		83		0
2480		38172		2884		30.118		4126.96		586		83		0
2480.2		38157		2727		29.9422		3892.5		598		85		0
2480.4		38146		2856		30.0372		4082.17		584		85		0
2480.6		38158		2865		30.2538		4107.75		582		83		0
2480.8		38137		2978		30.086		4259.52		581		82		0
2481		38139		2915		29.9254		4159.85		586		83		0
2481.2		38123		2956		30.0339		4224.9		593		84		0
2481.4		38141		2990		30.0709		4275.76		581		84		0
2481.6		38113		3076		30.3215		4414.56		588		83		0
2481.8		38113		3075		30.0493		4395.95		592		83		0
2482		38133		2976		30.052		4254.59		571		82		0
2482.2		38161		2874		30.0235		4107.09		586		83		0
2482.4		38174		2840		30.1102		4063.54		585		83		0
2482.6		38191		2713		29.9772		3874.45		587		84		0
2482.8		38179		2607		29.8466		3716.14		591		83		0
2483		38211		2469		29.9332		3523.78		578		83		0
2483.2		38197		2282		29.9256		3256.54		595		83		0
2483.4		38197		2348		29.9185		3350.38		581		83		0
2483.6		38219		2319		29.783		3302.62		582		83		0
2483.8		38204		2389		30.0002		3412.87		576		84		0
2484		38222		2238		29.9501		3194.87		575		84		0
2484.2		38211		2272		29.9276		3242.36		588		84		0
2484.4		38208		2184		29.9833		3119.25		569		82		0
2484.6		38226		2238		29.8688		3191.16		570		83		0
2484.8		38212		2312		29.9453		3300.28		586		83		0
2485		38224		2197		29.7959		3129.45		580		83		0
2485.2		38211		2219		29.9315		3166.9		572		83		0
2485.4		38224		2232		29.8944		3183.77		585		84		0
2485.6		38223		2225		29.8179		3170.32		569		85		0
2485.8		38205		2228		29.9117		3178.85		560		83		0
2486		38183		2262		29.9021		3226.92		572		82		0
2486.2		38172		2219		29.7754		3159.86		570		83		0
2486.4		38191		2279		29.8156		3247.16		595		83		0
2486.6		38170		2267		29.9158		3234.68		577		84		0
2486.8		38160		2158		29.6644		3068.15		559		85		0
2487		38179		2216		29.9871		3165.13		569		84		0
2487.2		38167		2175		29.9257		3103.85		569		84		0
2487.4		38160		2134		30.0374		3050.2		567		83		0
2487.6		38171		2243		29.8909		3199.3		556		82		0
2487.8		38155		2106		29.9856		3007.95		558		82		0
2488		38165		2254		29.8913		3215.01		558		85		0
2489		38225		2312		29.7668		3291.89		555		84		0
2490		38392		2308		30.0676		3300.33		557		85		0
2491		38393		2290		29.9612		3269.61		572		84		0
2492		38285		2264		30.0031		3234.43		582		84		0
2493		38294		2337		29.8191		3329.96		577		83		0
2494		38295		2457		29.8416		3502.08		566		84		0
2495		38271		2480		29.9732		3541.5		569		83		0
2496		38248		2394		29.8467		3412.52		586		84		0
2497		38238		2389		29.7563		3401.02		560		83		0
2498		38246		2537		29.7193		3609.81		559		81		0
2499		38276		2410		29.9384		3439.83		563		84		0
2500		38307		2526		29.9544		3606.22		560		86		0
2501		38305		2433		29.7785		3464.75		582		84		0
2502		38243		2584		29.8148		3681.69		565		84		0
2503		38210		2372		29.6906		3373.66		547		84		0
2504		38247		2457		29.7689		3498.45		572		83		0
2505		38270		2492		29.7819		3548.94		574		82		0
2506		38248		2414		29.7939		3438.45		560		84		0
2507		38277		2360		29.8535		3364.39		562		83		0
2508		38298		2369		29.5582		3363.06		567		85		0
2509		38392		2342		29.9298		3342.36		555		83		0
2510		38353		2363		29.7754		3364.92		566		83		0
2511		38362		2285		29.8228		3256.04		566		83		0
2512		38342		2295		29.6006		3259.97		539		82		0
2513		38355		2170		29.7175		3087.54		575		85		0
2514		38308		2239		29.7815		3188.62		560		85		0
2515		38283		2161		29.5376		3066.88		548		84		0
2516		38303		2121		29.6944		3016.83		563		83		0
2517		38287		2198		29.7041		3126.78		554		83		0
2518		38307		2243		29.6252		3187.22		558		82		0
2519		38337		2222		29.7304		3162.11		553		83		0
2520		38347		2218		29.7462		3157.12		556		84		0
2521		38314		2120		29.482		3006.32		558		85		0
2522		38251		2279		29.6052		3237.46		557		82		0
2523		38214		2230		29.5841		3166.9		549		83		0
2524		38253		2214		29.5445		3142.41		559		81		0
