# XAS / LUCIA / SOLEIL : 
# Date : sam. 29 mai 2021
#
# TARGET : GFL_PL_11_07_S_carto2b_obl_pt6
# Total number of scan(s) : 2
# Scan N° : 2
# Coordinates : 
#               Horizontal : -40
#               Vertical : 141
#               Depth : 9059.8
#               Rotation : 5.002
# ROI window : 
#               ROI_inf : 490
#               ROI_sup : 525
#
# Start of this scan : 04:05:13
# End of this scan : 04:11:40
#
# I0 current at start (µA) : 0
# USER COMMENTS : 
# 
# EXPERIMENTAL CONFIGURATION : 
# Undulator Harmonic : 5       Offset : nan
# Undulator Polarization : 0
# Low pass filter angle (°) : 0.800959         translation (µm) : -354
# Monochromator Crystal : 1: Si 111
#
# SCAN : 
# Range		From(eV)	To(eV)		Step(eV)	Time(sec)
## 1		2455		2465		1		1
## 2		2465.2		2488		0.2		1
## 3		2489		2525		1		1
#
# Energy	Io		FY		DeadTime		FY_c		TEY		It		Ctr4
2455		36887		1203		25.2731		1609.86		312		85		0
2456		37002		1429		24.8192		1900.75		295		88		0
2457		37072		1603		24.6668		2127.88		310		85		0
2458		37069		1761		24.5603		2334.31		298		87		0
2459		37061		1979		24.5313		2622.28		294		83		0
2460		37079		2241		24.5692		2970.93		282		84		0
2461		37076		2552		24.413		3376.24		284		84		0
2462		37109		3037		24.5593		4025.68		284		86		0
2463		37118		3748		24.7114		4978.18		280		85		0
2464		37149		4641		24.8683		6177.15		277		84		0
2465		37127		5877		25.0403		7840.21		279		83		0
2465.2		37141		6195		25.039		8264.29		287		84		0
2465.4		37146		6856		25.1023		9153.82		282		84		0
2465.6		37155		7059		25.0953		9423.97		271		85		0
2465.8		37139		7802		25.1775		10427.3		274		86		0
2466		37159		8364		25.3941		11210.9		279		85		0
2466.2		37144		8861		25.3252		11866.1		268		86		0
2466.4		37144		9844		25.2743		13173.5		276		83		0
2466.6		37152		10896		25.4854		14622.6		270		83		0
2466.8		37152		12230		25.7619		16474		280		83		0
2467		37134		13610		25.9596		18381.9		280		84		0
2467.2		37117		15041		26.2925		20406.3		271		87		0
2467.4		37137		17273		26.4879		23496.8		278		87		0
2467.6		37099		20442		27.1512		28060.9		275		86		0
2467.8		37090		24674		27.8193		34183.6		271		86		0
2468		37081		30847		28.7291		43281.4		274		85		0
2468.2		37047		40206		30.2015		57603		285		84		0
2468.4		37033		55262		33.0163		82500.7		278		85		0
2468.6		37120		76124		37.1794		121177		298		86		0
2468.8		37072		97207		42.0791		167827		291		85		0
2469		36967		115132		46.133		213734		301		85		0
2469.2		36881		123300		48.9691		241618		299		86		0
2469.4		36769		127126		50.1558		255047		292		86		0
2469.6		36724		128620		50.3106		258848		297		84		0
2469.8		36656		128127		50.7342		260073		296		85		0
2470		36651		127037		50.7661		258028		293		83		0
2470.2		36666		127039		49.6594		252359		298		84		0
2470.4		36711		122890		49.0339		241121		283		85		0
2470.6		36763		117647		47.6231		224616		292		86		0
2470.8		36802		112742		45.473		206763		292		84		0
2471		36856		106273		44.1153		190165		281		85		0
2471.2		36858		99645		42.0537		171961		290		85		0
2471.4		36863		93853		41.3118		159918		280		85		0
2471.6		36860		89479		40.2464		149747		287		85		0
2471.8		36908		86463		39.3244		142501		289		84		0
2472		36920		84608		38.8542		138371		287		85		0
2472.2		36926		84801		38.8803		138746		275		86		0
2472.4		36951		85702		38.9131		140295		277		84		0
2472.6		36951		88264		39.4671		145812		293		84		0
2472.8		36968		91095		40.3878		152813		290		84		0
2473		36931		95414		41.0772		161931		295		84		0
2473.2		36927		98887		42.0825		170738		289		87		0
2473.4		36939		102545		42.8967		179578		290		86		0
2473.6		36918		107464		44.0125		191943		294		86		0
2473.8		36922		111995		45.0911		203965		294		85		0
2474		36905		113829		46.0124		210843		293		83		0
2474.2		36919		117097		47.2263		221885		288		83		0
2474.4		36887		119823		47.4571		228048		305		84		0
2474.6		36897		121579		47.7798		232820		293		86		0
2474.8		36900		123086		48.3834		238462		299		85		0
2475		36884		123049		49.2904		242654		298		86		0
2475.2		36894		125276		49.2799		246995		303		84		0
2475.4		36861		124283		49.4934		246073		305		84		0
2475.6		36850		123071		51.2764		252590		295		84		0
2475.8		36877		127752		50.2714		256899		292		86		0
2476		36834		128615		50.6558		260649		285		85		0
2476.2		36841		129569		51.1963		265490		299		86		0
2476.4		36834		128929		51.9124		268113		295		84		0
2476.6		36823		130619		51.8621		271343		309		83		0
2476.8		36810		132774		51.4467		273460		295		83		0
2477		36799		131712		52.0113		274464		305		85		0
2477.2		36789		131102		51.8812		272455		295		86		0
2477.4		36795		131472		51.7092		272250		303		87		0
2477.6		36736		128026		51.6975		265050		295		84		0
2477.8		36729		129446		51.2504		265532		300		84		0
2478		36717		128405		51.3603		263992		299		84		0
2478.2		36727		128711		51.165		263563		298		86		0
2478.4		36715		128979		50.9261		262826		301		85		0
2478.6		36749		127936		50.4338		258111		297		86		0
2478.8		36776		127620		50.446		257537		296		86		0
2479		36770		125973		50.1386		252646		289		84		0
2479.2		36762		124722		50.0406		249647		306		85		0
2479.4		36769		125887		49.1834		247728		302		83		0
2479.6		36771		123528		48.8439		241473		308		83		0
2479.8		36790		121635		48.6766		236997		298		83		0
2480		36729		118501		48.0445		228082		306		85		0
2480.2		36745		117485		47.4381		223518		294		85		0
2480.4		36729		115463		46.9326		217578		284		87		0
2480.6		36745		114847		46.2819		213796		304		87		0
2480.8		36724		112500		46.7375		211218		287		86		0
2481		36741		113655		46.1406		211022		290		86		0
2481.2		36744		113770		46.0985		211070		283		84		0
2481.4		36760		112803		46.8754		212337		304		84		0
2481.6		36769		113480		46.2018		210936		296		84		0
2481.8		36910		112377		46.1436		208660		308		83		0
2482		36921		112284		45.9846		207874		288		84		0
2482.2		36931		111005		45.4815		203610		286		84		0
2482.4		36918		108814		45.0284		197946		296		86		0
2482.6		36926		107146		45.2385		195659		284		86		0
2482.8		36941		106563		44.1543		190817		287		87		0
2483		36956		105381		44.046		188335		289		87		0
2483.2		36950		103165		44.2368		185005		286		86		0
2483.4		36952		104280		43.708		185248		291		86		0
2483.6		36976		104321		43.9392		186085		298		83		0
2483.8		36965		103854		43.8365		184914		286		84		0
2484		37015		104080		43.8105		185230		289		85		0
2484.2		36977		103435		43.8642		184259		302		84		0
2484.4		37014		103589		43.8837		184597		297		86		0
2484.6		37007		103954		43.8309		185073		271		86		0
2484.8		37007		102270		43.5772		181257		294		85		0
2485		36975		101703		43.811		181002		288		84		0
2485.2		36984		102156		43.7739		181688		294		83		0
2485.4		36993		102323		43.5588		181291		291		83		0
2485.6		36991		101076		43.8359		179966		282		85		0
2485.8		36979		101310		43.0547		177908		285		85		0
2486		36979		100573		43.5427		178140		289		84		0
2486.2		36981		101031		43.396		178487		279		86		0
2486.4		36997		100038		43.9963		178627		294		84		0
2486.6		36979		100549		43.4788		177896		283		85		0
2486.8		36960		100317		43.5497		177709		298		84		0
2487		36980		100046		43.5402		177199		291		86		0
2487.2		36972		100177		43.3058		176697		284		86		0
2487.4		36960		99290		43.0307		174287		293		85		0
2487.6		36941		99704		42.8753		174537		290		83		0
2487.8		36956		99241		43.1803		174659		291		83		0
2488		36969		99461		43.1354		174909		277		85		0
2489		37026		100011		43.8425		178090		273		87		0
2490		37104		101160		43.7746		179919		291		85		0
2491		37095		98967		42.7354		172824		290		83		0
2492		37062		94968		42.2451		164433		277		84		0
2493		37063		93933		41.8495		161534		290		85		0
2494		37073		93677		42.3619		162526		288		85		0
2495		37052		95543		42.3602		165759		279		86		0
2496		37044		95433		42.1531		164975		283		87		0
2497		37063		95299		42.8949		166883		297		85		0
2498		37098		97473		42.777		170339		285		83		0
2499		37107		98421		42.6638		171656		294		84		0
2500		37156		99218		43.0671		174272		286		85		0
2501		37178		101481		43.5194		179674		282		86		0
2502		37163		101692		44.0654		181805		288		86		0
2503		37132		101524		44.4251		182679		292		83		0
2504		37150		102970		44.0598		184072		289		85		0
2505		37175		104020		44.4975		187415		289		85		0
2506		37153		103854		44.3329		186563		287		86		0
2507		37196		102678		44.0435		183496		273		85		0
2508		37205		102700		44.2325		184157		281		86		0
2509		37284		106880		44.9605		194188		291		83		0
2510		37295		105996		44.7193		191741		291		84		0
2511		37290		102169		44.0965		182760		295		84		0
2512		37258		99210		43.1539		174524		283		84		0
2513		37248		96197		42.4842		167253		294		85		0
2514		37254		93254		41.6528		159826		286		86		0
2515		37269		90802		41.5124		155250		280		85		0
2516		37283		91080		41.7176		156274		279		83		0
2517		37274		90147		41.2534		153451		287		84		0
2518		37280		88811		41.0608		150682		281		83		0
2519		37292		89051		40.9962		150924		300		83		0
2520		37314		88223		41.0437		149641		288		86		0
2521		37270		85945		40.4978		144440		276		86		0
2522		37276		84022		40.3214		140791		283		83		0
2523		37223		79850		39.6126		132230		286		84		0
2524		37295		81788		40.1499		136655		292		84		0
