# XAS / LUCIA / SOLEIL : 
# Date : ven. 28 mai 2021
#
# TARGET : Gypse
# Total number of scan(s) : 2
# Scan N° : 1
# Coordinates : 
#               Horizontal : -6101.4
#               Vertical : -8846.1
#               Depth : 7567.1
#               Rotation : 5.002
# ROI window : 
#               ROI_inf : 490
#               ROI_sup : 525
#
# Start of this scan : 14:56:01
# End of this scan : 15:09:00
#
# I0 current at start (µA) : 0
# USER COMMENTS : 
# 
# EXPERIMENTAL CONFIGURATION : 
# Undulator Harmonic : 5       Offset : nan
# Undulator Polarization : 0
# Low pass filter angle (°) : 0.800577         translation (µm) : -354
# Monochromator Crystal : 1: Si 111
#
# SCAN : 
# Range		From(eV)	To(eV)		Step(eV)	Time(sec)
## 1		2455		2465		1		1
## 2		2465.2		2500		0.2		1
## 3		2501		2550		1		1
#
# Energy	Io		FY		DeadTime		FY_c		TEY		It		Ctr4
2455		39604		1965		2.65555		2018.61		662		88		0
2456		39697		1955		2.69277		2009.1		649		89		0
2457		39760		1893		2.82131		1947.96		628		88		0
2458		39761		1970		2.66419		2023.92		622		87		0
2459		39744		1862		2.78816		1915.4		617		88		0
2460		39749		1734		2.79734		1783.9		613		88		0
2461		39760		1794		2.66291		1843.08		611		88		0
2462		39791		1747		2.64659		1794.49		615		87		0
2463		39808		1804		2.70685		1854.19		611		86		0
2464		39817		1751		2.52115		1796.29		616		89		0
2465		39786		1740		2.7296		1788.83		612		88		0
2465.2		39763		1799		2.5215		1845.54		610		88		0
2465.4		39771		1772		2.54803		1818.33		610		87		0
2465.6		39750		1727		2.76272		1776.07		604		88		0
2465.8		39725		1774		2.71712		1823.55		603		87		0
2466		39747		1741		2.79866		1791.13		609		87		0
2466.2		39732		1806		2.77898		1857.62		612		87		0
2466.4		39767		1779		2.45158		1823.71		603		85		0
2466.6		39745		1796		2.7855		1847.46		611		86		0
2466.8		39781		1782		2.7881		1833.11		612		85		0
2467		39755		1772		2.74618		1822.04		595		88		0
2467.2		39776		1771		2.70531		1820.24		603		88		0
2467.4		39725		1823		2.84954		1876.47		604		88		0
2467.6		39744		1790		2.7168		1839.99		601		90		0
2467.8		39711		1825		2.60733		1873.86		602		90		0
2468		39710		1820		2.74957		1871.46		603		90		0
2468.2		39656		1904		2.71146		1957.06		596		90		0
2468.4		39642		1891		2.73008		1944.07		604		89		0
2468.6		39593		1969		2.44934		2018.44		590		90		0
2468.8		39557		1979		2.78099		2035.61		600		89		0
2469		39424		1946		2.63686		1998.7		599		89		0
2469.2		39347		2074		2.91696		2136.32		611		88		0
2469.4		39244		2156		2.81126		2218.36		597		89		0
2469.6		39187		2253		2.70339		2315.6		598		89		0
2469.8		39109		2369		2.72784		2435.43		592		90		0
2470		39106		2446		2.83136		2517.27		592		89		0
2470.2		39123		2660		2.90522		2739.59		589		88		0
2470.4		39174		2730		2.96186		2813.33		591		89		0
2470.6		39198		2817		2.86022		2899.94		586		89		0
2470.8		39247		2943		2.87757		3030.2		559		89		0
2471		39291		3245		2.99245		3345.1		590		88		0
2471.2		39285		3315		2.81206		3410.92		583		88		0
2471.4		39314		3710		2.79027		3816.49		596		87		0
2471.6		39294		3805		3.0105		3923.1		583		88		0
2471.8		39361		3994		3.08		4120.92		603		87		0
2472		39360		3732		3.16118		3853.83		596		87		0
2472.2		39383		3836		2.80842		3946.84		599		87		0
2472.4		39396		3720		3.11514		3839.61		602		87		0
2472.6		39559		3647		3.07046		3762.53		617		86		0
2472.8		39550		3915		3.06566		4038.82		607		88		0
2473		39550		3681		2.9487		3792.84		607		87		0
2473.2		39534		3696		2.9737		3809.28		602		86		0
2473.4		39546		3678		3.17328		3798.54		604		88		0
2473.6		39539		3768		3.02438		3885.51		586		87		0
2473.8		39527		3706		2.94614		3818.5		588		88		0
2474		39528		3826		2.88179		3939.53		586		89		0
2474.2		39547		3972		3.00989		4095.26		592		88		0
2474.4		39510		4084		3.04886		4212.43		593		87		0
2474.6		39506		4000		3.06621		4126.53		586		89		0
2474.8		39511		4153		3.1479		4287.98		596		87		0
2475		39498		4198		3.22522		4337.91		596		88		0
2475.2		39459		4451		3.11725		4594.21		596		89		0
2475.4		39475		4586		3.20189		4737.7		590		87		0
2475.6		39466		4780		3.21843		4938.96		601		89		0
2475.8		39465		4900		3.31971		5068.25		593		90		0
2476		39438		5014		3.1257		5175.78		591		89		0
2476.2		39427		5217		3.4887		5405.58		587		89		0
2476.4		39428		5639		3.31478		5832.33		589		89		0
2476.6		39389		5861		3.24544		6057.6		584		88		0
2476.8		39382		6391		3.26742		6606.87		580		89		0
2477		39371		7042		3.60557		7305.4		580		90		0
2477.2		39366		7434		3.57091		7709.29		581		90		0
2477.4		39362		7654		3.66534		7945.22		575		89		0
2477.6		39348		7770		3.64051		8063.55		586		89		0
2477.8		39356		8052		3.776		8367.97		582		88		0
2478		39367		8305		3.64618		8619.27		587		90		0
2478.2		39387		8637		3.6295		8962.29		586		88		0
2478.4		39360		9207		4.0209		9592.71		603		86		0
2478.6		39426		9871		3.94634		10276.5		589		89		0
2478.8		39400		11174		3.93683		11631.9		589		87		0
2479		39414		12471		4.17626		13014.5		590		88		0
2479.2		39395		13664		4.45315		14300.8		584		90		0
2479.4		39412		15826		4.78842		16621.9		591		88		0
2479.6		39413		18938		5.34438		20007.3		596		89		0
2479.8		39431		22584		5.77309		23967.7		595		88		0
2480		39386		27952		6.53738		29907.1		586		89		0
2480.2		39387		35342		7.55843		38231.7		595		89		0
2480.4		39395		45708		9.37942		50438.9		588		89		0
2480.6		39380		57843		11.2866		65202.1		596		87		0
2480.8		39367		70078		13.4205		80940.6		591		89		0
2481		39365		80426		15.2634		94913		600		88		0
2481.2		39357		88952		16.7402		106837		605		86		0
2481.4		39377		94187		17.6073		114315		604		87		0
2481.6		39352		95687		17.9204		116578		606		87		0
2481.8		39355		94855		17.6075		115126		599		86		0
2482		39353		90236		16.8592		108534		590		86		0
2482.2		39397		82864		15.6572		98246.7		599		86		0
2482.4		39548		72445		13.6929		83938.6		590		87		0
2482.6		39541		61342		11.9412		69660.2		598		88		0
2482.8		39577		50890		10.2792		56720.4		589		89		0
2483		39577		42277		8.73318		46322.4		586		90		0
2483.2		39598		36195		7.9872		39336.9		585		89		0
2483.4		39591		32380		7.19386		34889.9		592		89		0
2483.6		39625		30434		7.11638		32765.7		588		88		0
2483.8		39620		30011		6.7537		32184.7		579		89		0
2484		39641		30575		7.16467		32934.7		582		87		0
2484.2		39634		32409		7.29834		34960.5		587		88		0
2484.4		39629		34499		7.62899		37348.3		585		89		0
2484.6		39652		36763		8.16464		40031.4		584		92		0
2484.8		39621		37632		8.02112		40913.7		584		90		0
2485		39625		37363		8.12038		40665.2		579		90		0
2485.2		39634		35994		7.88109		39073.4		576		89		0
2485.4		39633		33552		7.40832		36236.5		569		87		0
2485.6		39621		30734		7.14013		33097.2		578		89		0
2485.8		39607		27854		6.63162		29832.4		576		87		0
2486		39609		25238		6.18598		26902.2		568		84		0
2486.2		39627		22983		6.2583		24517.4		586		88		0
2486.4		39611		22503		5.81834		23893.2		579		88		0
2486.6		39595		21106		5.7424		22391.8		585		89		0
2486.8		39626		20519		5.59635		21735.4		576		91		0
2487		39616		20534		5.67642		21769.7		577		89		0
2487.2		39633		20151		5.4583		21314.4		573		89		0
2487.4		39588		20190		5.5465		21375.6		572		87		0
2487.6		39609		20210		5.39958		21363.5		571		88		0
2487.8		39588		20296		5.35315		21443.9		574		88		0
2488		39608		20239		5.5207		21421.6		578		88		0
2488.2		39599		20522		5.65821		21752.8		568		87		0
2488.4		39606		21048		5.66512		22312		567		88		0
2488.6		39609		21513		5.64054		22799		563		89		0
2488.8		39612		21974		5.87795		23346.3		572		89		0
2489		39629		22743		5.88902		24166.2		568		90		0
2489.2		39616		23316		5.92214		24783.7		571		89		0
2489.4		39656		24765		6.08387		26369.3		572		92		0
2489.6		39640		25390		6.30426		27098.3		574		88		0
2489.8		39669		26501		6.4039		28314.2		573		87		0
2490		39613		27228		6.36566		29079.1		572		89		0
2490.2		39623		28074		6.94096		30167.9		572		90		0
2490.4		39627		29042		6.66611		31116.2		563		90		0
2490.6		39619		29594		7.04445		31836.7		569		90		0
2490.8		39606		30242		7.0745		32544.3		570		90		0
2491		39616		30851		7.14301		33224.2		573		90		0
2491.2		39601		31729		7.25242		34210.1		566		89		0
2491.4		39602		31749		7.26765		34237.2		570		87		0
2491.6		39564		32115		7.44851		34699.6		563		88		0
2491.8		39558		32216		7.35907		34775.1		574		88		0
2492		39544		32851		7.32368		35447		562		89		0
2492.2		39575		33082		7.52317		35773.3		563		90		0
2492.4		39681		33286		7.61869		36031.1		564		90		0
2492.6		39702		32910		7.45802		35562.2		565		90		0
2492.8		39664		32098		7.44422		34679.6		564		90		0
2493		39680		31652		7.27075		34133.8		569		89		0
2493.2		39660		30992		7.10941		33364		571		87		0
2493.4		39647		30400		7.1007		32723.6		570		88		0
2493.6		39681		30076		7.0639		32362		565		86		0
2493.8		39640		29968		7.00406		32225.1		567		87		0
2494		39676		29756		7.08266		32024.2		570		87		0
2494.2		39658		29563		6.93757		31766.8		562		88		0
2494.4		39664		29554		6.97389		31769.6		559		87		0
2494.6		39673		29372		6.86413		31536.7		565		87		0
2494.8		39652		29511		7.0824		31760.4		556		89		0
2495		39654		29711		7.18166		32009.8		561		89		0
2495.2		39652		29603		7.06819		31854.5		562		89		0
2495.4		39667		29489		6.95824		31694.4		567		90		0
2495.6		39622		29755		7.02915		32004.7		554		89		0
2495.8		39601		29941		7.17446		32255.1		562		88		0
2496		39587		29779		7.18054		32082.7		548		89		0
2496.2		39594		30541		7.30144		32946.6		560		88		0
2496.4		39625		31209		7.10678		33596.6		557		88		0
2496.6		39583		32047		7.26237		34556.6		573		89		0
2496.8		39601		32546		7.55619		35206.3		560		88		0
2497		39589		33575		7.34051		36234.8		553		87		0
2497.2		39592		34109		7.77501		36984.6		559		88		0
2497.4		39580		34465		7.84064		37397.2		561		89		0
2497.6		39586		35715		7.79341		38733.7		554		88		0
2497.8		39576		36003		7.94256		39109.3		550		88		0
2498		39596		36462		8.00698		39635.6		563		88		0
2498.2		39587		36416		8.06157		39609.1		552		88		0
2498.4		39585		36672		8.05366		39884.1		559		89		0
2498.6		39602		36527		8.00618		39705.9		550		89		0
2498.8		39571		36404		8.11571		39619.4		553		89		0
2499		39572		36165		7.97645		39299.7		546		88		0
2499.2		39576		36279		7.84986		39369.4		557		87		0
2499.4		39556		35688		8.06966		38820.7		550		86		0
2499.6		39585		35170		7.83558		38160.1		549		88		0
2499.8		39572		35004		7.70726		37927.1		546		89		0
2500		39623		34813		7.90944		37803		549		89		0
2501		39607		32948		7.68317		35690.1		555		87		0
2502		39632		30321		7.00042		32603.4		548		89		0
2503		39585		28009		6.70141		30020.8		547		89		0
2504		39622		26941		6.56781		28834.8		543		88		0
2505		39638		25888		6.71245		27750.8		557		86		0
2506		39649		24565		6.36272		26234.2		548		85		0
2507		39645		23326		6.00403		24816		552		87		0
2508		39652		22022		5.9281		23409.8		547		89		0
2509		39712		21961		5.69885		23288.2		556		88		0
2510		39729		22418		6.05171		23862.1		548		89		0
2511		39741		21902		5.83776		23259.9		551		89		0
2512		39701		21602		5.86886		22948.8		552		86		0
2513		39887		21326		5.79661		22638.3		544		89		0
2514		39858		21475		5.85251		22810		545		88		0
2515		39887		21778		6.0248		23174.2		550		88		0
2516		39900		22379		6.08662		23829.4		558		88		0
2517		39878		22578		6.18723		24067.1		551		89		0
2518		39888		22733		6.16995		24227.8		554		89		0
2519		39900		23018		6.22829		24546.8		548		90		0
2520		39920		23341		6.17347		24876.8		549		86		0
2521		39903		22935		6.11296		24428.3		551		89		0
2522		39877		22629		6.10694		24100.8		555		88		0
2523		39889		22207		5.77875		23569		553		90		0
2524		39896		22038		6.08086		23464.9		540		88		0
2525		39896		21818		5.89626		23185		546		88		0
2526		39873		21406		6.03558		22781		533		88		0
2527		39897		21708		5.98608		23090.2		534		88		0
2528		39879		21287		5.76138		22588.4		535		86		0
2529		39850		21301		5.85734		22626.3		541		88		0
2530		39879		21433		5.93923		22786.3		538		88		0
2531		39954		21987		5.86656		23357.3		537		89		0
2532		39901		22072		5.91059		23458.5		533		89		0
2533		39904		21672		6.02461		23061.4		530		88		0
2534		39934		21948		5.85331		23312.6		533		89		0
2535		39927		21760		5.80035		23099.9		533		90		0
2536		39919		22055		5.83629		23422		536		88		0
2537		39922		21743		5.94627		23117.6		541		90		0
2538		39914		21990		6.01805		23398.1		542		90		0
2539		39900		22187		6.11626		23632.4		541		90		0
2540		39963		23031		6.07834		24521.5		532		89		0
2541		39977		22958		6.1039		24450.4		544		88		0
2542		39988		22463		6.16406		23938.6		527		90		0
2543		40029		22789		6.08544		24265.7		543		87		0
2544		40131		22414		6.18915		23892.8		529		89		0
2545		35600		20478		6.29475		21853.6		470		88		0
2546		39657		23078		6.09901		24577		535		88		0
2547		39874		23162		6.14566		24678.7		533		87		0
2548		40087		23866		6.36912		25489.5		529		88		0
2549		40625		24382		6.58784		26101.5		551		86		0
