# XAS / LUCIA / SOLEIL : 
# Date : ven. 28 mai 2021
#
# TARGET : Soufre
# Total number of scan(s) : 2
# Scan N° : 2
# Coordinates : 
#               Horizontal : 7234.5
#               Vertical : -9213.3
#               Depth : 7567.2
#               Rotation : 5.002
# ROI window : 
#               ROI_inf : 490
#               ROI_sup : 525
#
# Start of this scan : 17:00:39
# End of this scan : 17:12:05
#
# I0 current at start (µA) : 0
# USER COMMENTS : 
# 
# EXPERIMENTAL CONFIGURATION : 
# Undulator Harmonic : 5       Offset : nan
# Undulator Polarization : 0
# Low pass filter angle (°) : 0.800577         translation (µm) : -354
# Monochromator Crystal : 1: Si 111
#
# SCAN : 
# Range		From(eV)	To(eV)		Step(eV)	Time(sec)
## 1		2455		2465		1		1
## 2		2465.2		2500		0.2		1
## 3		2501		2525		1		1
#
# Energy	Io		FY		DeadTime		FY_c		TEY		It		Ctr4
2455		39148		2020		2.42397		2070.18		382		85		0
2456		39263		2014		2.6127		2068.03		362		90		0
2457		39314		2023		2.55347		2076.01		373		88		0
2458		39333		1936		2.58634		1987.4		370		90		0
2459		39323		1868		2.5648		1917.17		371		87		0
2460		39327		1918		2.60982		1969.4		367		88		0
2461		39324		1936		2.42995		1984.22		376		87		0
2462		39367		1942		2.65715		1995.01		358		87		0
2463		39372		2000		2.74835		2056.52		362		87		0
2464		39377		2104		2.64918		2161.26		365		88		0
2465		39348		2242		2.6577		2303.21		365		88		0
2465.2		39332		2271		2.56659		2330.82		369		88		0
2465.4		39334		2247		2.97642		2315.93		362		89		0
2465.6		39325		2371		2.67885		2436.26		377		87		0
2465.8		39295		2425		2.76208		2493.88		358		88		0
2466		39304		2459		2.62579		2525.31		376		85		0
2466.2		39278		2453		2.77709		2523.07		364		86		0
2466.4		39298		2625		2.83933		2701.71		388		86		0
2466.6		39289		2789		2.7185		2866.94		365		87		0
2466.8		39331		2887		2.7671		2969.16		361		87		0
2467		39329		3025		2.86326		3114.17		367		88		0
2467.2		39325		3350		2.81514		3447.04		366		87		0
2467.4		39316		3353		2.98288		3456.09		355		90		0
2467.6		39293		3660		2.86477		3767.94		363		89		0
2467.8		39288		3852		2.93971		3968.67		366		89		0
2468		39269		4181		2.93645		4307.49		361		90		0
2468.2		39225		4692		2.98221		4836.23		361		90		0
2468.4		39191		5455		3.22131		5636.57		359		86		0
2468.6		39126		6577		3.29482		6801.08		356		85		0
2468.8		39090		7352		3.26909		7600.47		365		87		0
2469		38950		7786		3.39952		8060		366		87		0
2469.2		38872		7472		3.45494		7739.39		368		89		0
2469.4		38756		7176		3.42832		7430.75		370		89		0
2469.6		38698		7125		3.66698		7396.22		369		89		0
2469.8		38616		7396		3.45712		7660.84		362		88		0
2470		38644		8058		3.52531		8352.45		353		89		0
2470.2		38646		9069		3.53328		9401.17		364		88		0
2470.4		38688		10736		3.96042		11178.7		361		89		0
2470.6		38712		13286		4.06618		13849.1		367		88		0
2470.8		38764		16956		4.69008		17790.4		367		86		0
2471		38793		22035		5.6553		23355.8		365		88		0
2471.2		38796		27788		6.49789		29719.1		372		87		0
2471.4		38781		33550		7.29136		36188.6		369		86		0
2471.6		38817		38945		7.8928		42282.3		374		87		0
2471.8		38822		43874		8.64496		48025.8		363		88		0
2472		38842		48206		9.40339		53209.5		371		89		0
2472.2		38832		51335		10.0194		57051.2		377		89		0
2472.4		38969		52808		10.2521		58840.4		377		88		0
2472.6		39029		53494		10.5615		59810.9		371		87		0
2472.8		39023		52827		10.2783		58878.7		367		90		0
2473		39003		51549		10.0037		57279		373		88		0
2473.2		39022		49729		9.76874		55112.8		372		91		0
2473.4		39020		46989		9.32509		51821.4		373		88		0
2473.6		38994		43574		8.7296		47741.7		366		89		0
2473.8		38980		39878		8.12669		43405.4		368		89		0
2474		38974		37662		7.64506		40779.6		375		89		0
2474.2		38980		35199		7.46301		38037.8		367		88		0
2474.4		38961		33435		7.26259		36053.4		366		87		0
2474.6		38983		32618		7.08086		35103.6		367		88		0
2474.8		38973		32099		6.97459		34505.6		361		86		0
2475		38951		31497		6.99574		33866.2		360		87		0
2475.2		38965		30900		6.75328		33137.9		358		90		0
2475.4		38912		30307		6.71904		32490		363		89		0
2475.6		38938		30066		6.71018		32228.6		366		88		0
2475.8		38924		29878		6.71632		32029.2		368		90		0
2476		38920		29563		6.76531		31708.2		378		88		0
2476.2		38917		29837		6.65178		31963.1		371		89		0
2476.4		38905		29911		6.62899		32034.6		369		87		0
2476.6		38878		30347		6.74966		32543.6		367		86		0
2476.8		38850		30172		6.8064		32375.6		367		88		0
2477		38861		30485		6.656		32658.8		374		88		0
2477.2		38832		30932		6.9216		33232.2		376		87		0
2477.4		38836		31223		6.84931		33518.8		369		87		0
2477.6		38798		31302		6.79328		33583.4		368		88		0
2477.8		38842		31661		6.97062		34033.3		362		86		0
2478		38820		31722		7.1584		34167.9		380		87		0
2478.2		38850		32243		7.11834		34714.1		372		87		0
2478.4		38829		31943		7.09424		34382.2		382		87		0
2478.6		38839		32154		7.01408		34579.4		377		90		0
2478.8		38847		32530		7.24176		35069.7		381		87		0
2479		38837		32631		7.21158		35167.1		375		88		0
2479.2		38840		32572		7.22234		35107.6		372		89		0
2479.4		38820		32608		7.14886		35118.6		376		88		0
2479.6		38827		32695		7.03834		35170.4		369		89		0
2479.8		38813		32586		7.276		35143		370		89		0
2480		38791		32524		7.02941		34983.1		366		90		0
2480.2		38764		32528		7.16886		35040		373		87		0
2480.4		38774		32387		7.0967		34861		379		87		0
2480.6		38763		32398		7.17779		34903.3		379		88		0
2480.8		38732		32058		7.19622		34543.9		384		87		0
2481		38752		32087		6.96499		34489.2		374		87		0
2481.2		38733		32395		6.94384		34812.3		373		86		0
2481.4		38764		32586		7.0327		35051		376		89		0
2481.6		38736		32211		7.21517		34715.8		375		87		0
2481.8		38762		32269		7.18413		34766.7		365		86		0
2482		38764		31784		7.03085		34187.7		381		87		0
2482.2		38773		31979		6.98618		34380.9		370		87		0
2482.4		38779		31591		7.00768		33971.6		365		87		0
2482.6		38951		31353		7.27715		33813.7		375		88		0
2482.8		38987		31841		6.92883		34211.5		366		89		0
2483		38989		31579		7.00086		33956.2		373		89		0
2483.2		38993		31521		7.2407		33981.5		366		89		0
2483.4		39027		31264		6.98195		33610.7		372		88		0
2483.6		39030		31344		6.86726		33655.2		375		88		0
2483.8		39075		31178		6.82637		33462.3		375		89		0
2484		39041		31192		7.15386		33595.4		371		89		0
2484.2		39061		30973		7.06131		33326.3		365		89		0
2484.4		39057		31038		6.96822		33362.8		374		89		0
2484.6		39080		30797		6.83885		33057.8		368		89		0
2484.8		39040		30999		6.9687		33321		377		87		0
2485		39052		31218		7.0047		33569.4		383		90		0
2485.2		39049		31288		6.96534		33630.5		377		87		0
2485.4		39049		31065		6.92829		33377.5		381		87		0
2485.6		39074		31114		7.04528		33472.2		373		87		0
2485.8		39056		31223		7.27203		33671.6		366		88		0
2486		39052		30880		6.9975		33203.4		369		87		0
2486.2		39063		30830		6.876		33106.4		367		89		0
2486.4		39052		31247		6.99626		33597.6		361		89		0
2486.6		39046		31097		6.9583		33422.6		365		90		0
2486.8		39047		30890		6.91936		33186.3		358		90		0
2487		39060		31074		6.9441		33392.8		358		89		0
2487.2		39054		30800		6.93619		33095.6		370		90		0
2487.4		39043		31224		7.0223		33582.2		359		89		0
2487.6		39035		30708		6.95517		33003.4		365		89		0
2487.8		39032		30444		6.87859		32692.8		364		90		0
2488		39033		30497		6.94797		32774.1		380		89		0
2488.2		39024		30578		6.80803		32811.8		365		88		0
2488.4		39007		30375		6.79472		32589.4		365		90		0
2488.6		39033		30199		6.86733		32425.8		367		88		0
2488.8		39012		29914		6.90218		32131.8		371		87		0
2489		39020		30405		6.80973		32626.8		368		89		0
2489.2		39050		30159		6.85142		32377.3		367		88		0
2489.4		39024		29826		6.75315		31986.1		370		87		0
2489.6		39066		29804		6.84579		31994.3		364		87		0
2489.8		39065		29676		6.64416		31788		370		87		0
2490		39055		29698		6.74198		31845		372		87		0
2490.2		39047		30204		6.86886		32431.7		380		88		0
2490.4		39039		29403		6.92192		31589.6		369		87		0
2490.6		39053		30061		6.84906		32271.3		366		88		0
2490.8		39039		29510		6.76416		31650.9		368		88		0
2491		39068		29542		6.76416		31685.2		367		89		0
2491.2		39061		29470		6.65347		31570.5		359		87		0
2491.4		39050		29506		6.7656		31647.1		372		89		0
2491.6		39013		29303		6.58573		31368.9		366		88		0
2491.8		38986		29398		6.68429		31503.8		372		87		0
2492		38996		29431		6.5361		31489.2		377		87		0
2492.2		38982		28768		6.76198		30854.4		366		88		0
2492.4		39131		29242		6.78502		31370.5		373		89		0
2492.6		39141		29182		6.69818		31277		369		90		0
2492.8		39137		28836		6.52832		30850		368		88		0
2493		39114		28738		6.70288		30802.7		367		89		0
2493.2		39133		29183		6.79008		31308.9		375		87		0
2493.4		39097		29102		6.61251		31162.6		370		86		0
2493.6		39126		28700		6.70717		30763.3		373		86		0
2493.8		39126		29079		6.55766		31119.7		369		86		0
2494		39132		28736		6.82384		30840.5		367		88		0
2494.2		39093		29000		6.67197		31073.2		357		90		0
2494.4		39129		28925		6.70842		31004.9		368		88		0
2494.6		39109		28877		6.73683		30962.9		359		89		0
2494.8		39130		28983		6.64288		31045.3		362		89		0
2495		39123		28674		6.6825		30727.4		366		89		0
2495.2		39112		28672		6.69501		30729.3		366		90		0
2495.4		39122		28926		6.64557		30985.1		361		89		0
2495.6		39097		28640		6.58541		30659		363		89		0
2495.8		39062		28787		6.65344		30838.8		370		88		0
2496		39073		28581		6.55648		30586.4		363		90		0
2496.2		39056		28602		6.57843		30616.1		374		88		0
2496.4		39073		28577		6.8032		30663.1		363		87		0
2496.6		39038		28724		6.77258		30810.7		372		88		0
2496.8		39046		28253		6.6415		30262.9		357		86		0
2497		39041		28301		6.65146		30317.6		364		89		0
2497.2		39056		28741		6.54755		30754.7		367		87		0
2497.4		39056		28550		6.54438		30549.3		375		86		0
2497.6		39042		28654		6.66467		30700.1		367		89		0
2497.8		39048		28339		6.67235		30365.1		369		88		0
2498		39050		28609		6.49603		30596.6		381		85		0
2498.2		39047		28612		6.71408		30671.3		367		87		0
2498.4		39056		28385		6.47002		30348.6		367		88		0
2498.6		39043		28536		6.6959		30583.9		367		86		0
2498.8		39035		28686		6.67741		30738.5		377		85		0
2499		39052		28701		6.82954		30804.8		377		86		0
2499.2		39022		28635		6.69869		30690.9		372		87		0
2499.4		39034		28537		6.7079		30588.9		373		88		0
2499.6		39037		28858		6.68029		30923.8		374		88		0
2499.8		39043		28647		6.61728		30677		360		88		0
2500		39049		28632		6.69581		30686.7		372		88		0
2501		39064		28887		6.79546		30993.1		369		88		0
2502		39059		28604		6.68768		30654		360		90		0
2503		39031		28275		6.62666		30281.7		361		88		0
2504		39050		28620		6.70979		30678.5		364		89		0
2505		39078		28686		6.81299		30783.3		367		89		0
2506		39081		28728		6.82576		30832.6		364		89		0
2507		39095		28975		6.7111		31059.4		372		87		0
2508		39110		28803		6.65306		30855.9		372		88		0
2509		39159		29011		6.93917		31174.2		378		86		0
2510		39177		29050		6.81334		31174		367		87		0
2511		39182		29230		6.85782		31382.1		365		87		0
2512		39160		29418		6.90048		31598.4		368		89		0
2513		39154		29449		6.87635		31623.5		371		86		0
2514		39272		29684		6.88768		31879.8		369		86		0
2515		39298		29580		6.88784		31768.1		373		86		0
2516		39293		29401		7.19814		31681.5		379		86		0
2517		39276		29458		6.83088		31617.8		373		86		0
2518		39293		29568		6.91213		31763.5		366		86		0
2519		39304		29762		7.02365		32010.3		365		87		0
2520		39342		29822		6.8832		32026.4		365		87		0
2521		39321		29932		6.84778		32132.4		360		89		0
2522		39306		29742		6.98662		31976		362		87		0
2523		39299		30074		7.0359		32350.1		366		88		0
2524		39313		30142		7.05613		32430.3		369		87		0
