# XAS / LUCIA / SOLEIL : 
# Date : jeu. 27 mai 2021
#
# TARGET : 780_11_07_50prct_long
# Total number of scan(s) : 1
# Scan N° : 1
# Coordinates : 
#               Horizontal : -10129.5
#               Vertical : -11494.3
#               Depth : 13840
#               Rotation : 4.996
# ROI window : 
#               ROI_inf : 1295
#               ROI_sup : 1365
#
# Start of this scan : 12:41:18
# End of this scan : 12:54:58
#
# I0 current at start (µA) : 0
# USER COMMENTS : 
# 
# EXPERIMENTAL CONFIGURATION : 
# Undulator Harmonic : 13       Offset : nan
# Undulator Polarization : 0
# Low pass filter angle (°) : 0.319543         translation (µm) : -147
# Monochromator Crystal : 3: Si311
#
# SCAN : 
# Range		From(eV)	To(eV)		Step(eV)	Time(sec)
## 1		7070		7105		2		1
## 2		7105.1		7121		0.1		1
## 3		7121.5		7160		0.5		1
## 4		7161		7250		1		1
#
# Energy	Io		FY		DeadTime		FY_c		TEY		It		Ctr4
7069.99		7471		712		3.19389		735.491		0		74		0
7072		7745		784		3.15946		809.578		0		73		0
7074		7727		741		3.20906		765.567		0		72		0
7076		7699		815		3.1145		841.199		0		73		0
7078		7675		817		3.19498		843.964		0		72		0
7080		7645		784		3.08803		808.982		0		75		0
7082		7631		845		3.1391		872.385		0		74		0
7084		7596		927		3.19261		957.572		0		75		0
7086		7572		1010		3.07309		1042.02		0		74		0
7088		7549		991		3.20717		1023.84		0		73		0
7090		7541		1065		3.32966		1101.68		0		74		0
7092		7540		1194		3.10461		1232.26		0		76		0
7094		7498		1279		3.14797		1320.57		0		74		0
7096		7486		1304		3.13472		1346.2		0		72		0
7098		7461		1406		3.35514		1454.81		0		73		0
7100		7443		1580		3.2016		1632.26		0		74		0
7102.01		7429		1667		3.38048		1725.32		0		75		0
7104		7418		2014		3.23187		2081.26		0		76		0
7105.1		7392		2123		3.32957		2196.12		0		75		0
7105.2		7382		2182		3.10813		2251.99		0		73		0
7105.3		7381		2193		3.38838		2269.91		0		75		0
7105.41		7378		2186		3.42989		2263.64		0		75		0
7105.51		7381		2206		3.57162		2287.71		0		75		0
7105.61		7374		2235		3.49997		2316.06		0		73		0
7105.71		7373		2308		3.46019		2390.72		0		75		0
7105.81		7379		2241		3.27622		2316.91		0		75		0
7105.9		7359		2279		3.42659		2359.86		0		75		0
7106		7360		2256		3.31411		2333.33		0		72		0
7106.09		7362		2265		3.4295		2345.44		0		75		0
7106.19		7354		2244		3.52614		2326.02		0		76		0
7106.29		7346		2329		3.54157		2414.51		0		74		0
7106.4		7345		2301		3.34813		2380.71		0		73		0
7106.5		7355		2445		3.44509		2532.24		0		73		0
7106.6		7359		2325		3.38563		2406.47		0		73		0
7106.7		7371		2484		3.49504		2573.96		0		75		0
7106.8		7360		2420		3.34861		2503.84		0		75		0
7106.9		7355		2416		3.26723		2497.6		0		75		0
7107		7359		2452		3.44442		2539.47		0		75		0
7107.1		7352		2505		3.77878		2603.38		0		74		0
7107.2		7353		2610		3.20704		2696.48		0		76		0
7107.3		7351		2586		3.4112		2677.33		0		76		0
7107.41		7349		2490		3.39366		2577.47		0		75		0
7107.51		7350		2541		3.32611		2628.42		0		74		0
7107.61		7345		2637		3.37699		2729.16		0		73		0
7107.71		7351		2715		3.55898		2815.19		0		76		0
7107.81		7359		2694		3.37485		2788.09		0		74		0
7107.9		7337		2673		3.42109		2767.68		0		74		0
7108		7344		2761		3.47629		2860.44		0		76		0
7108.09		7339		2763		3.59501		2866.03		0		75		0
7108.19		7341		2847		3.46902		2949.31		0		73		0
7108.29		7328		2847		3.61552		2953.8		0		75		0
7108.4		7336		2846		3.37568		2945.43		0		75		0
7108.5		7334		2847		3.51139		2950.61		0		76		0
7108.6		7323		2898		3.4615		3001.91		0		73		0
7108.7		7338		2924		3.58317		3032.67		0		76		0
7108.8		7341		3125		3.62477		3242.53		0		74		0
7108.9		7316		3043		3.53165		3154.4		0		73		0
7109		7327		3054		3.5191		3165.39		0		76		0
7109.1		7330		3155		3.36371		3264.82		0		75		0
7109.2		7318		3211		3.39462		3323.83		0		75		0
7109.3		7313		3207		3.6703		3329.19		0		75		0
7109.41		7321		3353		3.67398		3480.89		0		74		0
7109.51		7303		3323		3.42019		3440.68		0		75		0
7109.61		7314		3344		3.71331		3472.96		0		76		0
7109.71		7312		3463		3.49248		3588.32		0		75		0
7109.8		7303		3528		3.56643		3658.48		0		73		0
7109.9		7302		3563		3.77331		3702.71		0		73		0
7110		7319		3620		3.51814		3752		0		73		0
7110.09		7319		3684		3.70006		3825.55		0		75		0
7110.19		7325		3861		3.39562		3996.71		0		75		0
7110.29		7338		3952		3.7113		4104.32		0		73		0
7110.4		7324		4113		3.77053		4274.16		0		73		0
7110.5		7333		4276		3.69341		4439.99		0		75		0
7110.6		7332		4339		3.92083		4516.07		0		76		0
7110.7		7337		4493		3.90966		4675.81		0		73		0
7110.8		7314		4608		3.85155		4792.59		0		75		0
7110.9		7323		5009		4.0184		5218.71		0		76		0
7111		7334		5118		4.14086		5339.08		0		74		0
7111.1		7326		5531		4.03322		5763.45		0		75		0
7111.2		7313		5864		4.06051		6112.19		0		75		0
7111.31		7312		6182		4.22822		6454.93		0		74		0
7111.41		7324		6814		4.23117		7115.05		0		76		0
7111.51		7304		7201		4.5569		7544.81		0		73		0
7111.61		7306		7656		4.63424		8028.04		0		75		0
7111.7		7293		8244		4.5697		8638.77		0		76		0
7111.8		7289		8904		4.55498		9328.93		0		74		0
7111.9		7293		9219		4.67504		9671.13		0		75		0
7111.99		7287		9845		4.91949		10354.4		0		76		0
7112.09		7292		10128		4.98314		10659.2		0		76		0
7112.19		7285		10410		4.96944		10954.4		0		74		0
7112.29		7306		10566		5.19914		11145.5		0		75		0
7112.4		7290		10581		5.2481		11167.1		0		75		0
7112.5		7299		10417		4.80992		10943.4		0		74		0
7112.6		7279		10448		5.21984		11023.4		0		75		0
7112.7		7286		10155		5.04499		10694.5		0		76		0
7112.8		7288		10083		4.96643		10609.9		0		74		0
7112.9		7269		9678		4.75312		10161		0		74		0
7113		7274		9459		5.04154		9961.2		0		75		0
7113.1		7279		9612		4.83946		10100.8		0		75		0
7113.2		7258		9510		4.88512		9998.44		0		74		0
7113.3		7265		9576		4.8473		10063.8		0		77		0
7113.41		7257		9751		4.93136		10256.8		0		76		0
7113.51		7265		9949		4.98006		10470.4		0		74		0
7113.61		7264		10010		4.94243		10530.5		0		74		0
7113.7		7257		10286		4.9833		10825.5		0		75		0
7113.8		7259		10074		5.19798		10626.4		0		78		0
7113.9		7267		10269		5.06694		10817.1		0		74		0
7113.99		7275		10249		5.05411		10794.6		0		75		0
7114.09		7254		10083		4.95274		10608.4		0		75		0
7114.19		7257		9644		4.9473		10146		0		74		0
7114.3		7263		9662		4.91734		10161.7		0		73		0
7114.4		7255		9726		4.85744		10222.6		0		73		0
7114.5		7272		9433		4.77322		9905.83		0		75		0
7114.6		7273		9265		4.63875		9715.69		0		75		0
7114.7		7253		9103		4.72864		9554.81		0		73		0
7114.8		7239		9169		4.82733		9634.07		0		72		0
7114.9		7252		8862		4.86995		9315.67		0		74		0
7115		7238		9084		4.93651		9555.72		0		75		0
7115.1		7252		8956		4.73578		9401.22		0		72		0
7115.2		7239		9048		4.92442		9516.64		0		73		0
7115.3		7248		9070		4.7297		9520.28		0		75		0
7115.41		7249		9350		4.84262		9825.83		0		73		0
7115.5		7232		9180		4.8297		9645.87		0		73		0
7115.61		7229		9381		4.83782		9857.91		0		73		0
7115.7		7232		9715		4.81126		10206		0		75		0
7115.8		7253		10153		5.10454		10699.1		0		74		0
7115.9		7245		10131		4.96144		10659.9		0		75		0
7115.99		7243		10711		5.14813		11292.3		0		74		0
7116.09		7244		10946		5.16176		11541.8		0		76		0
7116.19		7241		11348		5.36288		11991.1		0		76		0
7116.3		7237		11749		5.4615		12427.7		0		75		0
7116.4		7241		12314		5.4256		13020.4		0		74		0
7116.5		7249		13089		5.6633		13874.8		0		74		0
7116.6		7229		13513		6.04509		14382.4		0		75		0
7116.7		7230		14277		5.90054		15172.2		0		74		0
7116.8		7231		14939		5.92941		15880.6		0		73		0
7116.9		7226		15813		6.27267		16871.3		0		74		0
7117		7235		16390		6.40346		17511.3		0		76		0
7117.1		7237		17395		6.70685		18645.5		0		74		0
7117.2		7237		18489		6.91789		19863.1		0		76		0
7117.31		7223		19654		7.08506		21152.7		0		74		0
7117.41		7215		20422		7.40237		22054.6		0		73		0
7117.51		7227		21303		7.54797		23042.2		0		76		0
7117.61		7240		22372		7.93853		24301.2		0		75		0
7117.7		7228		23837		8.07597		25931.2		0		74		0
7117.8		7240		24962		8.3065		27223.3		0		74		0
7117.89		7241		26279		8.55152		28736.4		0		75		0
7117.99		7247		27628		9.16989		30417.2		0		75		0
7118.1		7223		29252		9.27686		32243.2		0		75		0
7118.19		7235		31165		9.55178		34456.2		0		73		0
7118.3		7232		33047		10.2721		36830.3		0		74		0
7118.4		7228		34616		10.4308		38647.2		0		76		0
7118.5		7218		36414		10.9843		40907.4		0		76		0
7118.6		7213		37784		11.2564		42576.6		0		74		0
7118.7		7220		39915		11.9965		45356.1		0		75		0
7118.8		7220		41889		12.3838		47809.6		0		76		0
7118.9		7210		43517		12.778		49892.3		0		75		0
7119		7217		46125		13.2133		53147.6		0		74		0
7119.1		7226		47574		13.5936		55058.4		0		76		0
7119.2		7208		49370		13.9922		57401.8		0		75		0
7119.31		7213		51381		14.3996		60024.3		0		73		0
7119.41		7208		52580		14.9877		61849.9		0		73		0
7119.51		7202		53969		15.0663		63542.5		0		74		0
7119.61		7191		55426		15.3972		65513.2		0		75		0
7119.7		7194		57399		15.7439		68124.4		0		71		0
7119.8		7197		58381		16.417		69848		0		73		0
7119.9		7208		60022		16.5768		71948.8		0		74		0
7120		7195		62038		17.0856		74821.7		0		74		0
7120.09		7195		62774		17.3441		75946.1		0		71		0
7120.19		7193		63500		17.9421		77384.4		0		72		0
7120.3		7196		65097		18.0054		79391.9		0		73		0
7120.4		7191		66527		18.3378		81466		0		72		0
7120.5		7190		67509		18.5123		82845.6		0		73		0
7120.6		7180		68586		18.9817		84654.9		0		72		0
7120.7		7172		69116		18.9174		85241.5		0		72		0
7120.8		7177		70281		19.6127		87428		0		71		0
7120.9		7173		71461		19.6115		88894.5		0		72		0
7121.5		7162		75827		20.9596		95934.5		0		72		0
7121.99		7172		79668		21.7076		101757		0		72		0
7122.5		7152		83361		22.9521		108194		0		74		0
7123		7163		87375		24.0916		115106		0		73		0
7123.5		7141		90921		25.2521		121637		0		72		0
7124		7120		95821		26.4407		130264		0		72		0
7124.5		7127		99553		27.9305		138135		0		73		0
7125		7094		101979		28.8377		143305		0		71		0
7125.5		7059		104041		29.143		146832		0		73		0
7125.99		7077		105955		29.8999		151148		0		74		0
7126.5		7050		106299		30.1854		152259		0		73		0
7126.99		7062		107185		30.518		154263		0		75		0
7127.5		7033		107828		30.3302		154770		0		74		0
7127.99		7031		107262		30.2288		153734		0		73		0
7128.5		7048		107609		30.4384		154696		0		73		0
7128.99		7033		106815		30.3773		153420		0		75		0
7129.51		7025		106554		30.1476		152542		0		75		0
7129.99		7008		106028		30.0609		151600		0		75		0
7130.49		6998		105864		29.8229		150853		0		71		0
7131		6999		104981		29.6985		149330		0		72		0
7131.5		6992		104813		29.5217		148717		0		73		0
7131.99		6980		103788		29.2097		146613		0		74		0
7132.49		6976		103309		28.9742		145453		0		74		0
7133		6986		102597		28.7998		144097		0		74		0
7133.5		6961		101495		28.5818		142114		0		74		0
7133.99		6955		100936		28.3271		140829		0		72		0
7134.49		6965		100568		28.1054		139883		0		72		0
7134.99		6957		100378		27.8193		139065		0		74		0
7135.5		6957		99066		27.7596		137134		0		76		0
7136		6952		98844		27.5454		136422		0		74		0
7136.49		6949		98444		27.5335		135848		0		73		0
7136.99		6921		98224		27.1204		134776		0		72		0
7137.5		6840		96826		27.0026		132643		0		73		0
7137.99		6929		97433		27.2831		133990		0		72		0
7138.49		6923		96698		26.8583		132206		0		73		0
7139		6932		96382		26.9925		132017		0		72		0
7139.5		6924		96306		26.7486		131473		0		73		0
7139.99		6910		95988		26.5963		130767		0		73		0
7140.49		6925		95291		26.4764		129606		0		71		0
7141		6917		95164		26.096		128767		0		72		0
7141.5		6895		94410		26.1129		127776		0		71		0
7141.99		6901		94336		25.9698		127429		0		71		0
7142.49		6908		93674		25.8081		126259		0		74		0
7142.99		6907		93523		25.8693		126160		0		73		0
7143.5		6871		92414		25.6016		124215		0		74		0
7143.99		6838		91568		25.2559		122509		0		72		0
7144.49		6872		91488		25.2356		122368		0		72		0
7144.99		6882		90794		25.0572		121151		0		72		0
7145.5		6872		90251		25.0655		120440		0		74		0
7146		6879		90341		24.9046		120302		0		73		0
7146.49		6864		89795		24.6794		119217		0		71		0
7146.99		6882		89378		24.2268		117955		0		71		0
7147.5		6862		87901		24.313		116137		0		73		0
7147.99		6871		88363		24.2121		116593		0		74		0
7148.49		6842		87189		23.7074		114282		0		73		0
7149		6857		87051		23.9614		114483		0		72		0
7149.5		6842		86166		23.7308		112976		0		72		0
7149.99		6868		86194		23.9003		113265		0		73		0
7150.49		6857		85432		23.5814		111795		0		74		0
7151		6855		85631		23.4298		111833		0		72		0
7151.5		6832		85285		23.4988		111482		0		72		0
7151.99		6840		85231		23.1932		110968		0		72		0
7152.49		6828		84807		23.3985		110712		0		73		0
7153		6845		84568		23.1367		110024		0		75		0
7153.5		6834		84700		23.074		110106		0		75		0
7154		6826		84283		23.1089		109613		0		74		0
7154.5		6826		83909		23.4447		109606		0		72		0
7155		6818		84044		23.1454		109355		0		72		0
7155.51		6818		84647		23.0338		109979		0		72		0
7156		6807		84556		23.0625		109902		0		73		0
7156.49		6815		84140		22.8796		109102		0		73		0
7156.99		6807		84468		23.077		109808		0		73		0
7157.5		6799		84327		23.0488		109585		0		72		0
7157.99		6759		84393		22.8402		109374		0		72		0
7158.5		6769		84162		23.0952		109437		0		73		0
7158.99		6793		84331		23.35		110021		0		75		0
7159.5		6775		84401		23.2764		110007		0		73		0
7159.99		6781		84849		23.4285		110810		0		73		0
7161		6773		86043		23.3071		112192		0		72		0
7162.01		6760		85791		23.2921		111841		0		73		0
7163		6760		85975		23.6039		112538		0		73		0
7164.01		6749		86279		23.7248		113115		0		73		0
7165		6729		86697		23.8404		113836		0		74		0
7166		6722		86559		23.7784		113562		0		73		0
7167		6734		87328		23.9411		114816		0		73		0
7168.01		6737		87259		24.0468		114885		0		74		0
7169		6722		87559		23.9943		115201		0		74		0
7170.01		6724		88251		24.0269		116161		0		74		0
7171		6715		88771		24.2725		117224		0		73		0
7172		6697		89249		24.4393		118116		0		74		0
7173		6685		89899		24.521		119105		0		73		0
7174		6692		89800		24.7336		119310		0		73		0
7175		6673		90193		24.5832		119593		0		72		0
7176		6655		89525		24.7757		119011		0		73		0
7177		6661		90152		24.787		119862		0		72		0
7178		6639		89915		24.6483		119327		0		72		0
7179		6626		90449		24.7855		120255		0		73		0
7180		6612		89975		24.5215		119206		0		75		0
7181		6603		89715		24.7129		119164		0		75		0
7182		6594		90118		24.767		119785		0		76		0
7183		6591		89852		24.7296		119372		0		74		0
7184		6576		90372		24.5117		119717		0		73		0
7185		6572		89801		24.8802		119544		0		74		0
7186		6550		90021		24.6884		119531		0		73		0
7187		6545		89972		24.6877		119465		0		73		0
7188		6542		89528		24.8127		119073		0		74		0
7189		6527		89417		24.4555		118363		0		74		0
7190.01		6530		89482		24.4932		118509		0		75		0
7191		6515		89517		24.5149		118589		0		74		0
7192		6509		89953		24.2694		118780		0		74		0
7193		6497		89066		24.3075		117668		0		73		0
7194		6483		89044		24.6093		118110		0		76		0
7195		6477		88455		24.2445		116764		0		76		0
7196		6462		88136		24.1354		116175		0		74		0
7197		6451		88257		24.2631		116531		0		73		0
7198		6443		88053		23.9164		115732		0		72		0
7199		6446		87619		24.0702		115395		0		72		0
7200		6444		87674		23.675		114869		0		73		0
7201		6421		87315		23.7272		114477		0		75		0
7202.01		6408		87517		23.7966		114847		0		75		0
7203		6401		87171		23.5999		114098		0		75		0
7204		6394		86941		23.5376		113704		0		75		0
7205		6382		86686		23.6317		113511		0		73		0
7206		6379		86133		23.4565		112528		0		71		0
7207		6388		86728		23.4618		113313		0		74		0
7208		6364		86093		23.2924		112235		0		74		0
7209		6366		85806		23.4084		112031		0		75		0
7210		6360		85583		23.0906		111278		0		74		0
7211		6356		85670		23.1433		111467		0		73		0
7212.01		6349		85221		23.2478		111034		0		73		0
7213		6336		85502		23.202		111334		0		74		0
7214.01		6326		85135		23.0308		110609		0		75		0
7215		6332		85130		23.1498		110774		0		74		0
7216		6315		85343		23.1584		111063		0		75		0
7217		6307		84855		23.2109		110504		0		72		0
7218.01		6299		84834		23.0554		110253		0		73		0
7219		6298		84709		22.9902		109998		0		74		0
7220		6279		84461		23.0928		109822		0		75		0
7221		6274		84562		22.8714		109638		0		74		0
7222.01		6267		83940		22.926		108908		0		73		0
7223		6261		84185		22.8101		109062		0		73		0
7224		6256		84544		22.6271		109268		0		74		0
7225		6241		84058		22.6624		108690		0		74		0
7226		6242		83759		22.8335		108543		0		74		0
7227.01		6222		83928		22.8797		108827		0		73		0
7227.99		6215		84189		22.6288		108812		0		73		0
7229.01		6211		84080		22.5569		108570		0		72		0
7230		6195		84057		22.7103		108756		0		74		0
7231.02		6186		83773		22.6255		108270		0		74		0
7232		6179		83520		22.5871		107889		0		75		0
7233.01		6186		83690		22.4893		107972		0		74		0
7234		6185		83803		22.7794		108524		0		75		0
7235		6165		83891		22.4991		108245		0		76		0
7236		6156		83708		22.4372		107923		0		74		0
7237		6148		83691		22.6442		108190		0		73		0
7238		6144		84032		22.709		108722		0		72		0
7239		6130		83330		22.5393		107577		0		72		0
7240		6137		83127		22.2832		106961		0		75		0
7241		6118		83119		22.5188		107276		0		75		0
7242		6099		83051		22.4784		107133		0		75		0
7243		6094		83187		22.4079		107211		0		74		0
7244		6107		83176		22.5535		107398		0		73		0
7245		6081		82924		22.4671		106953		0		73		0
7246		6084		82967		22.3739		106880		0		75		0
7247		6073		83578		22.3898		107689		0		75		0
7248		6062		82679		22.4663		106636		0		77		0
7249		6055		82772		22.5123		106820		0		73		0
