# XAS / LUCIA / SOLEIL : 
# Date : mar. 25 mai 2021
#
# TARGET : Diopside_pt2
# Total number of scan(s) : 1
# Scan N° : 1
# Coordinates : 
#               Horizontal : -2415.8
#               Vertical : 5656.8
#               Depth : 14413.3
#               Rotation : 4.996
# ROI window : 
#               ROI_inf : 1295
#               ROI_sup : 1365
#
# Start of this scan : 22:21:54
# End of this scan : 22:46:15
#
# I0 current at start (µA) : 0
# USER COMMENTS : 
# 
# EXPERIMENTAL CONFIGURATION : 
# Undulator Harmonic : 21       Offset : nan
# Undulator Polarization : 0
# Low pass filter angle (°) : 0.319734         translation (µm) : -147.5
# Monochromator Crystal : 3: Si311
#
# SCAN : 
# Range		From(eV)	To(eV)		Step(eV)	Time(sec)
## 1		7070		7105		2		1
## 2		7105.05		7121		0.05		1
## 3		7121.3		7160		0.3		1
## 4		7161		7250		1		1
#
# Energy	Io		FY		DeadTime		FY_c		TEY		It		Ctr4
7069.99		13482		284		0.588128		285.68		0		0		0
7072		13415		279		0.442048		280.239		21		0		0
7074		13360		311		0.382784		312.195		24		0		0
7076		13315		295		0.776192		297.308		20		0		0
7078		13286		306		0.488		307.501		18		0		0
7080		13264		343		0.57648		344.989		24		0		0
7082		13258		396		0.302816		397.203		17		0		0
7084.01		13239		433		0.778176		436.396		17		0		0
7086		13235		447		0.530688		449.385		22		0		0
7088		13201		485		0.711072		488.473		30		0		0
7090		13178		483		0.505856		485.456		20		0		0
7092		13159		581		0.548736		584.206		18		0		0
7094		13117		596		0.385152		598.304		20		0		0
7096		13077		602		0.632224		605.83		26		0		0
7098		13053		747		0.494208		750.71		23		0		0
7100		13038		778		0.660704		783.174		18		0		0
7102		13031		875		0.448448		878.942		29		0		0
7104		13009		1039		0.58976		1045.16		40		0		0
7105.05		12979		1084		0.537568		1089.86		52		0		0
7105.1		12978		1045		0.554176		1050.82		32		0		0
7105.15		12982		1123		0.598016		1129.76		32		0		0
7105.2		12972		1110		0.742304		1118.3		49		0		0
7105.25		12983		1105		0.697312		1112.76		35		0		0
7105.3		12990		1149		0.745856		1157.63		44		0		0
7105.35		12998		1177		0.673536		1184.98		30		0		0
7105.4		12982		1108		0.856		1117.57		30		0		0
7105.45		12984		1140		0.6376		1147.32		22		0		0
7105.51		12983		1118		0.707712		1125.97		27		0		0
7105.56		12978		1109		0.474432		1114.29		20		0		0
7105.6		12979		1133		0.714752		1141.16		34		0		0
7105.65		12968		1141		0.59984		1147.89		25		0		0
7105.7		12965		1160		0.513536		1165.99		27		0		0
7105.75		12972		1127		0.68272		1134.75		45		0		0
7105.8		12977		1168		0.600576		1175.06		16		0		0
7105.85		12989		1174		0.647616		1181.65		24		0		0
7105.9		12996		1117		0.647232		1124.28		14		0		0
7105.95		12988		1136		0.9488		1146.88		37		0		0
7106		12983		1228		0.760416		1237.41		24		0		0
7106.05		12974		1164		0.775296		1173.09		24		0		0
7106.1		12968		1168		0.722496		1176.5		25		0		0
7106.14		12969		1215		0.703648		1223.61		32		0		0
7106.2		12971		1206		0.583488		1213.08		15		0		0
7106.25		12961		1203		0.552544		1209.68		17		0		0
7106.3		12947		1184		0.604544		1191.2		30		0		0
7106.35		12961		1267		0.691552		1275.82		31		0		0
7106.4		12956		1198		0.561664		1204.77		11		0		0
7106.45		12951		1210		0.721472		1218.79		44		0		0
7106.5		12958		1210		0.602944		1217.34		24		0		0
7106.55		12951		1250		0.731648		1259.21		27		0		0
7106.6		12944		1221		0.770848		1230.49		21		0		0
7106.65		12951		1264		0.640576		1272.15		25		0		0
7106.7		12944		1251		0.590528		1258.43		17		0		0
7106.75		12946		1245		0.95696		1257.03		28		0		0
7106.8		12948		1294		0.509856		1300.63		32		0		0
7106.85		12944		1305		0.675616		1313.88		4		0		0
7106.9		12934		1295		0.671808		1303.76		21		0		0
7106.95		12933		1294		0.673632		1302.78		15		0		0
7107		12937		1228		0.726368		1236.99		26		0		0
7107.05		12930		1294		0.736608		1303.6		29		0		0
7107.1		12925		1306		0.656256		1314.63		35		0		0
7107.15		12920		1269		0.817216		1279.46		37		0		0
7107.2		12921		1213		0.71728		1221.76		4		0		0
7107.25		12923		1268		0.645632		1276.24		24		0		0
7107.3		12916		1320		0.581888		1327.73		32		0		0
7107.36		12900		1248		0.654688		1256.22		33		0		0
7107.4		12904		1345		0.74608		1355.11		21		0		0
7107.45		12886		1297		0.633664		1305.27		0		0		0
7107.5		12881		1340		0.728512		1349.83		25		0		0
7107.56		12891		1309		0.603808		1316.95		18		0		0
7107.6		12894		1312		0.732512		1321.68		53		0		0
7107.65		12881		1325		0.682624		1334.11		28		0		0
7107.7		12893		1440		0.861568		1452.51		22		0		0
7107.75		12884		1308		0.963936		1320.73		29		0		0
7107.8		12886		1342		0.701088		1351.48		23		0		0
7107.85		12881		1337		0.606944		1345.16		36		0		0
7107.9		12890		1341		0.694016		1350.37		14		0		0
7107.95		12888		1391		0.712352		1400.98		16		0		0
7108		12892		1346		0.589408		1353.98		37		0		0
7108.05		12903		1372		0.521056		1379.19		31		0		0
7108.09		12917		1358		0.660928		1367.04		32		0		0
7108.14		12906		1374		0.547456		1381.56		26		0		0
7108.2		12907		1407		0.636576		1416.01		44		0		0
7108.25		12893		1358		0.788864		1368.8		17		0		0
7108.3		12891		1488		0.77824		1499.67		35		0		0
7108.35		12893		1430		0.586944		1438.44		7		0		0
7108.4		12885		1401		0.836576		1412.82		44		0		0
7108.45		12886		1452		0.758592		1463.1		21		0		0
7108.5		12883		1392		0.580576		1400.13		38		0		0
7108.55		12881		1421		0.672288		1430.62		14		0		0
7108.6		12877		1522		0.72304		1533.08		47		0		0
7108.65		12873		1423		0.836128		1435		36		0		0
7108.7		12877		1410		0.802688		1421.41		19		0		0
7108.75		12859		1470		0.935648		1483.88		50		0		0
7108.8		12866		1617		0.568864		1626.25		18		0		0
7108.85		12859		1434		0.841696		1446.17		39		0		0
7108.9		12858		1442		0.577984		1450.38		19		0		0
7108.95		12862		1540		0.919648		1554.29		22		0		0
7109		12854		1460		0.741632		1470.91		9		0		0
7109.05		12853		1537		0.639168		1546.89		39		0		0
7109.1		12865		1494		0.853888		1506.87		32		0		0
7109.15		12860		1567		0.643072		1577.14		12		0		0
7109.2		12862		1547		0.676192		1557.53		44		0		0
7109.25		12856		1580		0.930592		1594.84		21		0		0
7109.3		12848		1572		0.784		1584.42		30		0		0
7109.35		12851		1573		0.725728		1584.5		29		0		0
7109.4		12850		1601		0.675008		1611.88		38		0		0
7109.46		12859		1637		0.521568		1645.58		32		0		0
7109.5		12853		1544		1.07194		1560.73		20		0		0
7109.55		12844		1659		0.763072		1671.76		14		0		0
7109.61		12852		1712		0.729376		1724.58		23		0		0
7109.65		12853		1632		0.752512		1644.37		28		0		0
7109.7		12843		1688		0.780704		1701.28		14		0		0
7109.75		12848		1718		0.701056		1730.13		50		0		0
7109.8		12844		1628		0.74832		1640.27		15		0		0
7109.85		12843		1745		0.782976		1758.77		27		0		0
7109.9		12836		1811		0.673408		1823.28		26		0		0
7109.95		12836		1717		0.713088		1729.33		9		0		0
7110		12838		1812		0.837984		1827.31		3		0		0
7110.04		12839		1768		0.802496		1782.3		32		0		0
7110.1		12841		1796		0.937248		1812.99		23		0		0
7110.15		12842		1812		1.04019		1831.05		33		0		0
7110.2		12828		1785		0.626464		1796.25		11		0		0
7110.25		12835		1863		0.617344		1874.57		6		0		0
7110.3		12836		1883		0.832128		1898.8		4		0		0
7110.35		12841		1845		0.65408		1857.15		9		0		0
7110.4		12844		1841		0.825472		1856.32		48		0		0
7110.45		12828		1863		0.798944		1878		32		0		0
7110.5		12841		1903		0.972128		1921.68		45		0		0
7110.55		12821		1992		0.795232		2007.97		30		0		0
7110.6		12812		2000		0.772384		2015.57		29		0		0
7110.65		12826		1955		1.05622		1975.87		13		0		0
7110.7		12822		2070		0.913792		2089.09		6		0		0
7110.75		12820		2015		0.834848		2031.96		32		0		0
7110.8		12812		2080		0.777696		2096.3		54		0		0
7110.85		12825		2093		0.686752		2107.47		17		0		0
7110.9		12826		2149		0.82464		2166.87		33		0		0
7110.95		12819		2200		0.875552		2219.43		22		0		0
7111		12826		2196		1.03718		2219.02		27		0		0
7111.05		12815		2259		0.802656		2277.28		21		0		0
7111.1		12804		2356		0.916352		2377.79		25		0		0
7111.15		12811		2354		0.78768		2372.69		20		0		0
7111.2		12815		2355		0.95392		2377.68		20		0		0
7111.25		12833		2511		1.07773		2538.36		48		0		0
7111.3		12850		2542		0.862432		2564.11		22		0		0
7111.35		12833		2534		0.813536		2554.78		23		0		0
7111.4		12822		2562		1.00854		2588.1		65		0		0
7111.45		12817		2771		0.993952		2798.82		25		0		0
7111.5		12809		2702		1.01968		2729.84		3		0		0
7111.56		12824		2810		1.02598		2839.13		39		0		0
7111.6		12803		2754		1.17722		2786.81		30		0		0
7111.65		12798		2899		1.3616		2939.02		37		0		0
7111.7		12812		2886		1.27136		2923.16		26		0		0
7111.75		12798		2897		0.936288		2924.38		20		0		0
7111.8		12808		2940		0.959872		2968.49		11		0		0
7111.85		12815		3043		0.914784		3071.09		19		0		0
7111.9		12784		3072		0.966688		3101.99		30		0		0
7111.95		12794		2883		1.08909		2914.74		27		0		0
7112		12797		3100		0.8968		3128.05		37		0		0
7112.05		12805		3102		0.99632		3133.22		0		0		0
7112.1		12807		3029		0.9376		3057.67		13		0		0
7112.15		12805		3039		1.05379		3071.37		7		0		0
7112.2		12817		3108		0.977152		3138.67		26		0		0
7112.25		12809		3174		1.15693		3211.15		15		0		0
7112.3		12816		3239		1.04842		3273.32		21		0		0
7112.35		12809		3212		1.11904		3248.35		21		0		0
7112.4		12811		3204		1.06563		3238.51		26		0		0
7112.45		12800		3299		1.13226		3336.78		14		0		0
7112.5		12795		3426		1.04509		3462.18		33		0		0
7112.55		12790		3430		1.17222		3470.68		29		0		0
7112.6		12792		3437		1.10678		3475.47		35		0		0
7112.65		12797		3607		1.18166		3650.13		32		0		0
7112.7		12788		3566		1.16355		3607.98		29		0		0
7112.75		12770		3531		1.22944		3574.95		11		0		0
7112.8		12770		3616		1.07347		3655.24		39		0		0
7112.85		12787		3750		1.26237		3797.94		36		0		0
7112.9		12787		3628		1.27408		3674.82		28		0		0
7112.95		12781		3651		1.06362		3690.25		28		0		0
7113		12775		3776		1.20326		3821.99		4		0		0
7113.05		12768		3780		1.36086		3832.15		73		0		0
7113.1		12771		3793		1.44077		3848.45		14		0		0
7113.15		12787		3985		1.30602		4037.73		17		0		0
7113.2		12785		4039		1.3968		4096.22		13		0		0
7113.25		12786		4082		1.29754		4135.66		22		0		0
7113.3		12785		4110		1.44224		4170.14		29		0		0
7113.35		12785		4060		1.27203		4112.31		22		0		0
7113.4		12788		4222		1.21856		4274.08		24		0		0
7113.45		12783		4115		1.27024		4167.94		39		0		0
7113.51		12769		4302		1.3919		4362.72		17		0		0
7113.55		12765		4323		1.6135		4393.9		1		0		0
7113.6		12767		4365		1.46048		4429.69		27		0		0
7113.65		12770		4336		1.20096		4388.71		22		0		0
7113.7		12781		4422		1.27533		4479.12		20		0		0
7113.75		12773		4510		1.32275		4570.46		31		0		0
7113.8		12774		4472		1.25587		4528.88		27		0		0
7113.85		12780		4560		1.14848		4612.98		21		0		0
7113.9		12773		4508		1.27194		4566.08		17		0		0
7113.95		12775		4441		1.28685		4498.89		7		0		0
7114		12774		4612		1.41907		4678.39		12		0		0
7114.04		12783		4573		1.45376		4640.46		16		0		0
7114.1		12788		4668		1.38246		4733.44		37		0		0
7114.15		12790		4730		1.34906		4794.68		15		0		0
7114.2		12781		4605		1.43178		4671.89		25		0		0
7114.25		12785		4781		1.43638		4850.67		39		0		0
7114.3		12789		4827		1.53446		4902.22		19		0		0
7114.35		12787		4939		1.35712		5006.95		24		0		0
7114.4		12790		5000		1.40237		5071.12		26		0		0
7114.45		12795		4971		1.65155		5054.48		17		0		0
7114.5		12791		5196		1.40102		5269.83		13		0		0
7114.55		12791		5121		1.60224		5204.39		24		0		0
7114.6		12796		5241		1.40202		5315.52		17		0		0
7114.65		12802		5311		1.63984		5399.54		12		0		0
7114.7		12793		5474		1.39299		5551.33		4		0		0
7114.75		12800		5289		1.45379		5367.03		19		0		0
7114.8		12798		5440		1.73565		5536.09		18		0		0
7114.85		12795		5501		1.59382		5590.1		26		0		0
7114.9		12803		5519		1.39926		5597.32		9		0		0
7114.95		12786		5472		1.60704		5561.37		34		0		0
7115		12797		5540		1.62922		5631.75		41		0		0
7115.05		12788		5480		1.49226		5563.01		23		0		0
7115.1		12784		5664		1.54326		5752.78		26		0		0
7115.15		12792		5531		1.52182		5616.47		26		0		0
7115.2		12793		5494		1.69194		5588.55		19		0		0
7115.25		12791		5514		1.64982		5606.5		30		0		0
7115.3		12790		5528		1.35773		5604.09		21		0		0
7115.35		12784		5406		1.59018		5493.35		15		0		0
7115.41		12794		5409		1.47872		5490.18		48		0		0
7115.46		12774		5251		1.66774		5340.06		24		0		0
7115.51		12774		5215		1.47258		5292.94		34		0		0
7115.55		12778		5165		1.34557		5235.45		25		0		0
7115.6		12770		5164		1.47872		5241.51		32		0		0
7115.65		12777		5089		1.44982		5163.87		26		0		0
7115.7		12778		5143		1.57126		5225.1		29		0		0
7115.75		12775		5056		1.59469		5137.93		26		0		0
7115.8		12794		4962		1.39859		5032.38		19		0		0
7115.85		12792		4972		1.32106		5038.56		17		0		0
7115.9		12782		4792		1.54368		4867.13		10		0		0
7115.95		12796		4781		1.50138		4853.87		14		0		0
7116		12797		4925		1.54627		5002.35		29		0		0
7116.05		12796		4901		1.52675		4976.99		17		0		0
7116.1		12790		4693		1.40979		4760.11		21		0		0
7116.14		12785		4833		1.44774		4904		28		0		0
7116.2		12790		4756		1.53946		4830.36		21		0		0
7116.25		12812		4757		1.6697		4837.78		19		0		0
7116.3		12803		4818		1.3112		4882.01		20		0		0
7116.35		12810		4771		1.81229		4859.06		15		0		0
7116.4		12808		4652		1.57168		4726.28		18		0		0
7116.45		12806		4892		1.36634		4959.77		7		0		0
7116.5		12801		4956		1.42218		5027.5		24		0		0
7116.55		12784		4834		1.47907		4906.57		26		0		0
7116.6		12776		4799		1.33187		4863.78		24		0		0
7116.65		12780		4870		1.5176		4945.05		17		0		0
7116.7		12783		4827		1.50429		4900.72		13		0		0
7116.75		12773		4941		1.40157		5011.24		24		0		0
7116.8		12791		4942		1.48656		5016.57		21		0		0
7116.85		12785		4972		1.48208		5046.8		14		0		0
7116.9		12787		5015		1.396		5086		22		0		0
7116.95		12780		5045		1.37354		5115.26		9		0		0
7117		12781		5140		1.58784		5222.93		29		0		0
7117.05		12781		5037		1.53005		5115.27		29		0		0
7117.1		12789		5287		1.64797		5375.59		19		0		0
7117.15		12784		5243		1.41251		5318.12		23		0		0
7117.2		12793		5422		1.39677		5498.81		24		0		0
7117.25		12802		5282		1.76835		5377.09		30		0		0
7117.3		12797		5326		1.6191		5413.65		18		0		0
7117.36		12782		5537		1.4087		5616.11		29		0		0
7117.4		12800		5702		1.51286		5789.59		25		0		0
7117.45		12786		5541		1.504		5625.61		12		0		0
7117.51		12789		5730		1.57536		5821.71		14		0		0
7117.55		12783		5802		1.48803		5889.64		17		0		0
7117.6		12807		5923		1.55414		6016.51		23		0		0
7117.65		12779		5909		1.58525		6004.18		10		0		0
7117.7		12752		6028		1.61706		6127.08		29		0		0
7117.75		12756		6097		1.7063		6202.84		16		0		0
7117.8		12776		6320		1.66589		6427.07		19		0		0
7117.85		12769		6514		1.68291		6625.5		12		0		0
7117.89		12781		6536		1.62384		6643.89		12		0		0
7117.94		12780		6768		1.79952		6892.02		12		0		0
7118		12794		6846		2.03062		6987.9		17		0		0
7118.05		12802		7031		2.12634		7183.75		14		0		0
7118.09		12794		7203		1.94813		7346.11		5		0		0
7118.15		12799		7642		2.07238		7803.72		20		0		0
7118.2		12802		7563		2.09382		7724.74		8		0		0
7118.25		12806		7903		2.0439		8067.9		28		0		0
7118.3		12802		7981		1.98477		8142.61		22		0		0
7118.35		12802		8154		2.15037		8333.19		25		0		0
7118.4		12796		8523		2.27315		8721.25		32		0		0
7118.45		12798		8634		2.33126		8840.09		24		0		0
7118.5		12799		8727		2.18944		8922.35		17		0		0
7118.55		12805		9173		2.30662		9389.58		30		0		0
7118.6		12800		9335		2.40266		9564.81		28		0		0
7118.65		12790		9551		2.43379		9789.25		31		0		0
7118.7		12786		9710		2.6785		9977.24		23		0		0
7118.75		12790		10153		2.57251		10421.1		24		0		0
7118.8		12802		10407		2.66483		10691.9		11		0		0
7118.85		12793		10508		2.50317		10777.8		17		0		0
7118.9		12788		10871		2.66602		11168.8		25		0		0
7118.95		12792		11179		2.63987		11482.1		30		0		0
7119		12796		11586		2.90816		11933		9		0		0
7119.05		12789		11954		2.77664		12295.4		17		0		0
7119.1		12796		11791		2.77722		12127.8		36		0		0
7119.15		12790		12323		2.92406		12694.2		18		0		0
7119.2		12790		12404		2.93002		12778.4		24		0		0
7119.25		12778		12601		3.02784		12994.5		31		0		0
7119.31		12788		13042		3.24198		13479		34		0		0
7119.35		12790		13104		3.14627		13529.7		33		0		0
7119.41		12785		13644		3.3367		14115		20		0		0
7119.45		12792		14099		3.45795		14604		20		0		0
7119.5		12778		14411		3.46842		14928.8		20		0		0
7119.55		12775		14403		3.46445		14919.9		30		0		0
7119.6		12779		14875		3.66429		15440.8		24		0		0
7119.65		12776		15268		3.87581		15883.6		28		0		0
7119.7		12781		15613		3.7064		16214		25		0		0
7119.75		12768		15960		3.67891		16569.6		18		0		0
7119.8		12774		16139		3.92403		16798.2		21		0		0
7119.85		12778		16714		3.85606		17384.4		25		0		0
7119.9		12785		17220		4.15341		17966.2		21		0		0
7119.94		12777		17556		3.94701		18277.4		24		0		0
7120		12768		18045		4.29264		18854.3		29		0		0
7120.04		12773		18342		4.3383		19173.8		30		0		0
7120.1		12765		19138		4.63603		20068.4		27		0		0
7120.15		12766		19421		4.74016		20387.4		14		0		0
7120.2		12761		19887		4.73779		20876.1		21		0		0
7120.25		12754		20782		4.91229		21855.6		32		0		0
7120.3		12759		21180		4.7833		22244		15		0		0
7120.35		12749		21682		5.14237		22857.4		23		0		0
7120.4		12757		22545		5.18458		23777.8		18		0		0
7120.45		12753		23283		5.29638		24585.1		22		0		0
7120.5		12755		23737		5.45917		25107.7		25		0		0
7120.55		12749		24009		5.7265		25467.4		15		0		0
7120.6		12752		25078		5.67472		26586.7		22		0		0
7120.65		12767		25704		5.82381		27293.5		31		0		0
7120.7		12756		26391		6.0463		28089.4		27		0		0
7120.75		12747		27228		6.23318		29038		7		0		0
7120.8		12739		27720		6.38816		29611.6		33		0		0
7120.85		12729		28461		6.61091		30475.7		31		0		0
7120.9		12720		29780		6.90938		31990.3		16		0		0
7120.95		12735		30361		6.99427		32644.2		13		0		0
7121.31		12704		35651		8.19178		38832		18		0		0
7121.6		12727		38532		8.91312		42302.5		34		0		0
7121.89		12726		41466		9.53389		45835.9		19		0		0
7122.2		12715		43030		9.81562		47713.4		20		0		0
7122.5		12722		43888		10.2105		48878.7		36		0		0
7122.79		12703		46134		10.5579		51579.7		26		0		0
7123.1		12696		48852		11.3633		55114.9		11		0		0
7123.4		12690		51365		11.7174		58182.5		20		0		0
7123.7		12681		53915		12.6869		61749.1		27		0		0
7124		12676		57836		13.4516		66825		21		0		0
7124.3		12666		61130		14.3614		71381.3		28		0		0
7124.6		12665		64755		15.4045		76546.6		33		0		0
7124.89		12669		66785		16.0909		79592.1		28		0		0
7125.21		12400		68572		16.4588		82081.6		28		0		0
7125.5		12355		70359		16.7911		84557.1		27		0		0
7125.8		12564		73729		17.7509		89641.2		25		0		0
7126.1		12563		76066		18.3373		93146.6		27		0		0
7126.4		12552		77811		18.9862		96046.6		33		0		0
7126.7		12553		80055		19.4595		99397.2		24		0		0
7126.99		12541		81226		19.7716		101243		24		0		0
7127.31		12533		82297		19.9843		102851		31		0		0
7127.6		12520		83583		20.2878		104856		18		0		0
7127.9		12506		84389		20.6277		106320		22		0		0
7128.2		12500		85650		21.0269		108455		27		0		0
7128.5		12506		86761		21.3804		110355		30		0		0
7128.79		12494		88551		22.0077		113538		19		0		0
7129.1		12472		90779		22.3968		116978		28		0		0
7129.41		12470		92521		23.0383		120217		30		0		0
7129.7		12459		95214		23.4644		124405		30		0		0
7130		12454		96568		24.3235		127606		25		0		0
7130.29		12446		97945		24.8754		130377		25		0		0
7130.6		12428		99631		25.0044		132849		25		0		0
7130.89		12425		100540		25.0654		134170		31		0		0
7131.21		12420		100409		25.3647		134533		18		0		0
7131.51		12420		100235		25.1941		133993		21		0		0
7131.79		12425		99365		24.8104		132153		15		0		0
7132.1		12431		97887		24.6425		129897		24		0		0
7132.4		12415		96855		24.4674		128229		17		0		0
7132.69		12417		96205		23.8862		126396		18		0		0
7132.99		12421		95147		23.7144		124725		25		0		0
7133.3		12422		94110		23.3925		122847		23		0		0
7133.6		12414		93094		22.8873		120725		12		0		0
7133.9		12410		91114		22.638		117776		29		0		0
7134.2		12415		90342		21.9698		115778		14		0		0
7134.5		12403		89174		21.8426		114095		21		0		0
7134.79		12400		86900		21.395		110553		27		0		0
7135.11		12402		85876		21.2013		108982		20		0		0
7135.4		12393		84839		20.6366		106899		22		0		0
