# XAS / LUCIA / SOLEIL : 
# Date : dim. 30 mai 2021
#
# TARGET : DR08-02_Fe-pt5
# Total number of scan(s) : 1
# Scan N° : 1
# Coordinates : 
#               Horizontal : -14252.9
#               Vertical : -3360.1
#               Depth : 9938.5
#               Rotation : -0.003
# ROI window : 
#               ROI_inf : 1290
#               ROI_sup : 1365
#
# Start of this scan : 14:22:52
# End of this scan : 14:40:22
#
# I0 current at start (µA) : 5.874e-12
# USER COMMENTS : 
# 
# EXPERIMENTAL CONFIGURATION : 
# Undulator Harmonic : 21       Offset : nan
# Undulator Polarization : 0
# Low pass filter angle (°) : 0.319447         translation (µm) : -165.5
# Monochromator Crystal : 3: Si311
#
# SCAN : 
# Range		From(eV)	To(eV)		Step(eV)	Time(sec)
## 1		7070		7105		2		1
## 2		7105.1		7121		0.1		1
## 3		7121.5		7160		0.5		1
## 4		7161		7250		1		1
#
# Energy	Io		FY		DeadTime		FY_c		TEY		It		Ctr4
7069.99		13306		1482		5.67498		1571.16		0		91		0
7072		13242		1451		5.77315		1539.9		0		92		0
7074		13205		1447		5.61286		1533.05		0		92		0
7076		13160		1629		5.83459		1729.93		0		93		0
7078		13140		1517		5.82413		1610.82		0		93		0
7080		13122		1683		5.76099		1785.88		0		95		0
7082		13114		1813		5.67472		1922.07		162		95		0
7084		13092		1880		5.89165		1997.7		76		91		0
7086		13063		1926		6.01088		2049.17		0		92		0
7088		13027		2005		5.82058		2128.92		0		93		0
7090.01		13010		2103		5.77251		2231.83		0		93		0
7092		12996		2320		5.92627		2466.15		0		93		0
7094		12988		2434		5.87546		2585.94		0		95		0
7096		12969		2636		5.86051		2800.1		0		94		0
7098		12954		2856		6.05405		3040.05		0		92		0
7100		12922		3100		5.78944		3290.5		0		93		0
7102		12904		3361		6.11706		3579.99		0		92		0
7104		12869		3998		6.13405		4259.27		0		94		0
7105.12		12856		4172		6.03872		4440.13		0		94		0
7105.21		12845		4230		6.10787		4505.17		0		91		0
7105.31		12849		4262		6.30333		4548.72		0		93		0
7105.4		12861		4138		6.23939		4413.37		0		92		0
7105.5		12854		4253		6.14141		4531.28		0		92		0
7105.59		12843		4195		6.34019		4478.98		0		94		0
7105.7		12835		4470		6.33968		4772.57		0		92		0
7105.79		12831		4297		6.04995		4573.71		0		92		0
7105.9		12833		4354		6.1112		4637.4		0		94		0
7106		12823		4479		6.35683		4783.05		8		94		0
7106.1		12831		4505		6.18042		4801.77		0		94		0
7106.2		12829		4516		6.2639		4817.78		0		93		0
7106.3		12829		4535		6.42307		4846.28		0		93		0
7106.4		12819		4655		6.21843		4963.66		0		95		0
7106.5		12833		4744		6.38384		5067.5		0		94		0
7106.6		12853		4640		6.31914		4952.99		0		94		0
7106.7		12843		4772		6.33619		5094.82		0		92		0
7106.8		12848		4794		6.29629		5116.13		0		92		0
7106.91		12849		4781		6.35091		5105.23		0		92		0
7107.01		12842		4724		6.43046		5048.65		0		95		0
7107.11		12834		4839		6.31408		5165.13		0		95		0
7107.21		12823		5169		6.30774		5517		0		93		0
7107.3		12818		4964		6.49558		5308.84		0		92		0
7107.4		12822		5023		6.67245		5382.12		0		94		0
7107.5		12823		5054		6.37456		5398.11		0		96		0
7107.59		12817		4990		6.26278		5323.39		0		95		0
7107.7		12813		5235		6.35232		5590.1		54		94		0
7107.79		12807		5188		6.52294		5550.03		50		93		0
7107.9		12815		5113		6.36365		5460.49		40		93		0
7108		12810		5251		6.22749		5599.72		3		93		0
7108.1		12809		5336		6.33014		5696.6		43		94		0
7108.2		12801		5470		6.51504		5851.21		17		94		0
7108.3		12801		5578		6.38659		5958.55		0		93		0
7108.4		12801		5503		6.41501		5880.22		0		94		0
7108.5		12796		5488		6.40528		5863.58		0		93		0
7108.6		12799		5581		6.51405		5969.88		9		94		0
7108.7		12791		5708		6.42605		6099.99		0		95		0
7108.8		12786		5885		6.6544		6304.53		0		92		0
7108.91		12786		5804		6.57328		6212.36		0		92		0
7109.01		12784		5749		6.68634		6160.94		0		93		0
7109.11		12782		5921		6.48614		6331.68		1		95		0
7109.21		12779		6078		6.51766		6501.76		39		96		0
7109.3		12776		6257		6.32253		6679.3		0		94		0
7109.4		12776		6168		6.6399		6606.68		10		93		0
7109.49		12773		6355		6.7648		6816.1		24		95		0
7109.59		12768		6447		6.71456		6911.05		11		94		0
7109.69		12775		6594		6.74742		7071.12		0		94		0
7109.79		12769		6604		6.61939		7072.13		0		94		0
7109.9		12773		6954		6.84026		7464.6		0		94		0
7110		12772		6980		6.78253		7487.87		33		92		0
7110.1		12768		7015		6.65066		7514.78		29		92		0
7110.2		12761		7279		6.7767		7808.13		29		95		0
7110.3		12760		7368		6.89923		7914.01		0		94		0
7110.4		12749		7396		6.75056		7931.41		0		92		0
7110.5		12758		7609		6.8769		8170.9		0		93		0
7110.6		12756		7997		6.88083		8587.92		0		92		0
7110.7		12759		8251		7.0288		8874.79		0		92		0
7110.8		12758		8459		7.04157		9099.77		10		94		0
7110.91		12751		8850		7.02144		9518.32		0		94		0
7111.01		12753		9090		7.08829		9783.48		0		94		0
7111.11		12748		9574		7.23011		10320.2		0		93		0
7111.21		12747		9890		7.33005		10672.3		22		92		0
7111.3		12745		10316		7.40848		11141.4		0		91		0
7111.4		12750		10888		7.55267		11777.5		10		93		0
7111.5		12752		11465		7.9153		12450.5		0		94		0
7111.59		12745		12496		8.16147		13606.5		0		94		0
7111.69		12738		13490		8.15165		14687.3		0		92		0
7111.8		12737		14495		8.3215		15810.7		79		93		0
7111.9		12728		15653		8.59306		17124.5		70		95		0
7112		12733		16670		8.79014		18276.5		59		94		0
7112.1		12728		17432		8.98173		19152.2		0		92		0
7112.2		12729		18250		9.21696		20102.9		0		94		0
7112.3		12733		18778		9.29968		20703.3		0		94		0
7112.4		12726		19346		9.34288		21339.7		0		95		0
7112.5		12741		19383		9.55949		21431.8		31		93		0
7112.6		12756		19432		9.48611		21468.5		0		93		0
7112.7		12752		19504		9.52698		21557.8		0		94		0
7112.81		12741		19434		9.35555		21439.8		0		92		0
7112.91		12741		18637		9.50445		20594.4		0		92		0
7113.01		12733		18674		9.53779		20642.9		0		92		0
7113.1		12738		18582		9.59834		20554.9		0		93		0
7113.21		12743		18540		9.28522		20437.7		0		95		0
7113.3		12743		18136		9.46934		20033		38		95		0
7113.4		12736		18627		9.37622		20554.2		0		93		0
7113.49		12728		18462		9.31734		20358.9		0		93		0
7113.59		12723		18658		9.36781		20586.5		0		92		0
7113.69		12728		19401		9.50118		21437.8		0		94		0
7113.79		12734		19582		9.49216		21635.7		0		94		0
7113.9		12727		19543		9.3959		21569.7		0		94		0
7114		12727		19574		9.56717		21644.8		0		91		0
7114.1		12719		19773		9.31213		21803.4		9		92		0
7114.2		12721		19693		9.6111		21787		19		95		0
7114.3		12729		19559		9.66986		21652.8		0		94		0
7114.4		12726		19011		9.2175		20941.3		14		93		0
7114.5		12716		18697		9.34246		20623.8		0		92		0
7114.6		12723		18680		9.3465		20605.9		26		94		0
7114.7		12720		18735		9.26378		20647.8		33		92		0
7114.81		12719		18217		9.1505		20051.8		0		94		0
7114.91		12723		18066		9.1199		19878.9		0		92		0
7115.01		12703		17765		9.12515		19548.9		0		93		0
7115.1		12711		17748		9.1824		19542.5		0		92		0
7115.21		12713		17803		8.89443		19541.1		0		94		0
7115.3		12713		17876		9.18835		19684.7		0		92		0
7115.4		12708		17458		9.01011		19186.7		36		93		0
7115.49		12706		17721		9.27286		19532.2		2		94		0
7115.59		12703		18171		9.17245		20006		0		95		0
7115.69		12695		18308		9.34794		20195.9		0		92		0
7115.8		12695		18518		9.36794		20432.1		0		91		0
7115.9		12701		18910		9.54986		20906.5		0		92		0
7116		12687		19626		9.53219		21693.9		0		94		0
7116.1		12694		19851		9.61277		21962.2		6		93		0
7116.2		12686		20589		9.72714		22807.5		0		92		0
7116.3		12690		21352		9.93341		23706.9		0		92		0
7116.4		12689		22288		9.91808		24741.9		30		93		0
7116.5		12690		22802		10.351		25434.8		2		93		0
7116.6		12696		23771		10.5461		26573.5		25		94		0
7116.7		12698		24991		10.7004		27985.6		0		92		0
7116.81		12694		25820		10.842		28959.8		12		93		0
7116.91		12689		26921		11.2026		30317.3		0		93		0
7117.01		12683		28221		11.4611		31874.1		0		94		0
7117.11		12679		29024		11.7896		32903.1		28		94		0
7117.2		12678		30371		12.0285		34523.7		42		94		0
7117.3		12675		32094		12.2265		36564.6		0		94		0
7117.4		12671		33792		12.7709		38739.4		0		93		0
7117.49		12662		35229		13.2252		40598.2		0		93		0
7117.59		12668		37476		13.6963		43423.4		0		95		0
7117.69		12669		39377		14.2103		45899.5		0		94		0
7117.8		12666		41692		14.5069		48766.5		4		92		0
7117.9		12662		43783		15.1357		51591.8		155		92		0
7118		12656		45808		15.6263		54291.8		0		93		0
7118.1		12650		47709		16.1365		56888.9		0		92		0
7118.2		12651		50190		17.0254		60488.4		0		95		0
7118.3		12662		52437		17.4293		63505.6		18		96		0
7118.4		12652		55610		18.2088		67990.2		0		93		0
7118.5		12678		58024		18.8436		71496.5		0		93		0
7118.6		12680		61087		19.4598		75846.6		0		93		0
7118.7		12675		63872		20.1689		80008.9		27		93		0
7118.81		12673		66114		21.0076		83696.6		0		94		0
7118.91		12673		69049		21.7196		88207.3		0		95		0
7119.01		12666		71125		22.3034		91542		0		93		0
7119.11		12669		73459		22.8695		95239.9		0		93		0
7119.2		12668		76595		23.9013		100652		0		93		0
7119.3		12666		78858		24.3652		104262		0		94		0
7119.39		12666		82148		25.1191		109705		28		95		0
7119.49		12652		84452		25.9285		114014		0		93		0
7119.59		12659		87136		26.7084		118889		0		93		0
7119.69		12663		89379		27.7194		123656		0		96		0
7119.8		12669		91517		28.3567		127740		2		95		0
7119.9		12671		93986		28.7282		131870		0		94		0
7120		12656		95762		29.7602		136336		0		94		0
7120.1		12659		98063		30.142		140375		0		93		0
7120.2		12645		99993		30.6289		144142		0		93		0
7120.3		12658		101042		31.4554		147411		0		94		0
7120.4		12653		103107		31.9157		151440		0		93		0
7120.5		12650		104605		32.4379		154828		0		93		0
7120.6		12648		106036		32.963		158175		0		95		0
7120.7		12651		106745		33.5064		160534		79		96		0
7120.81		12649		108029		33.9948		163667		0		94		0
7120.91		12646		109531		34.3382		166811		1		93		0
7121.5		12619		115277		36.5154		181583		0		94		0
7122		12613		120491		38.3469		195434		93		96		0
7122.5		12619		124245		40.4252		208553		0		95		0
7123		12600		128977		42.0518		222573		0		93		0
7123.49		12583		132045		44.1515		236434		0		93		0
7124		12584		136233		46.3045		253714		0		92		0
7124.49		12572		139382		48.3803		270017		0		95		0
7125		12575		141867		49.95		283450		0		94		0
7125.49		12110		142983		49.9568		285719		66		96		0
7126		12483		144476		52.1546		301964		26		96		0
7126.5		12480		145924		52.651		308188		0		95		0
7127		12467		145666		53.0852		310491		0		94		0
7127.5		12446		145943		53.2033		311866		0		94		0
7128		12441		146810		53.151		313369		0		95		0
7128.5		12412		146542		53.2285		313315		0		94		0
7129.01		12408		146099		53.31		312913		0		95		0
7129.49		12388		145742		53.0966		310728		20		93		0
7130		12380		145379		53.029		309508		0		92		0
7130.49		12375		145648		52.841		308844		0		92		0
7131		12364		144283		52.5121		303831		69		95		0
7131.49		12368		144895		52.2425		303397		152		94		0
7131.99		12360		144868		51.6114		299385		0		95		0
7132.49		12349		143983		51.3563		295995		62		94		0
7133.01		12341		143852		50.9286		293149		48		94		0
7133.49		12341		142953		50.5349		288998		12		93		0
7133.99		12335		142504		50.3648		287103		0		93		0
7134.49		12326		142214		49.9044		283885		0		93		0
7135		12332		141945		49.6471		281900		0		93		0
7135.49		12326		141649		49.3716		279781		20		95		0
7135.99		12319		141347		49.1653		278052		0		94		0
7136.5		12325		140868		49.0313		276381		15		95		0
7137		12310		141172		48.7501		275458		0		94		0
7137.5		12090		139515		48.0598		268607		75		93		0
7137.99		12281		139921		48.4111		271223		2		93		0
7138.5		12296		140350		48.0631		270232		18		92		0
7139		12315		139862		48.0612		269282		0		94		0
7139.5		12327		139561		47.821		267466		0		93		0
7140		12323		138388		47.8226		265226		0		93		0
7140.49		12330		138740		47.6321		264933		0		96		0
7141		12318		139094		47.1381		263127		0		94		0
7141.5		12323		138251		47.1711		261696		14		95		0
7141.99		12320		138149		47.0191		260752		13		94		0
7142.5		12319		137614		46.6451		257922		0		95		0
7143		12315		136999		46.574		256428		0		95		0
7143.5		12294		136796		46.1049		253819		2		94		0
7144		12089		135695		45.5341		249138		162		91		0
7144.49		12268		136553		45.6159		251090		0		93		0
7145		12269		135546		45.4827		248629		0		92		0
7145.49		12280		134835		45.4519		247186		0		94		0
7146		12282		134701		44.7839		243952		0		93		0
7146.5		12274		134436		44.7518		243331		1		95		0
7147		12267		133323		44.5615		240488		17		94		0
7147.5		12261		132796		44.2738		238301		0		95		0
7147.99		12256		132677		43.9321		236636		0		94		0
7148.5		12246		131524		43.7756		233927		0		92		0
7149		12235		132075		43.4515		233560		90		92		0
7149.49		12240		131403		43.3732		232051		0		93		0
7149.99		12230		131436		42.9154		230248		0		93		0
7150.5		12230		130639		42.7394		228148		10		93		0
7151.01		12225		130289		42.9197		228256		0		93		0
7151.5		12219		129878		42.7794		226978		0		93		0
7152		12223		129941		42.644		226552		89		94		0
7152.5		12224		129884		42.4958		225869		111		93		0
7153		12206		129412		42.2997		224283		81		93		0
7153.49		12205		129617		42.1003		223865		0		95		0
7154		12196		129165		42.0986		223078		0		92		0
7154.5		12186		129071		42.2103		223346		0		92		0
7155		12187		129834		42.0417		224013		0		95		0
7155.5		12190		128838		42.154		222726		92		96		0
7156		12173		128612		42.2885		222854		17		93		0
7156.5		12172		129452		42.3096		224391		0		92		0
7157		12183		130226		42.0371		224671		0		94		0
7157.49		12203		129410		42.4776		224973		0		92		0
7157.99		11812		127581		41.2317		217091		0		93		0
7158.5		12133		129391		42.2554		224075		0		94		0
7159		12148		130066		42.3937		225784		82		96		0
7159.5		12140		130338		42.1837		225435		53		95		0
7159.99		12139		129469		42.5398		225319		0		96		0
7161		12128		130296		42.7826		227721		0		94		0
7162		12123		130914		42.8057		228893		0		94		0
7163		12116		131199		43.0305		230297		42		94		0
7164		12105		131573		43.0666		231100		0		95		0
7165		12095		131901		43.3849		232979		0		94		0
7166		12083		131763		43.5901		233582		0		94		0
7167		12073		132682		43.6526		235471		0		94		0
7168		12073		132221		43.9015		235695		9		94		0
7169		12060		133216		44.0035		237900		0		95		0
7170		12050		132971		44.2728		238611		0		93		0
7171		12051		134100		44.409		241226		0		94		0
7172		12033		134308		44.7981		243303		0		93		0
7173		12026		134607		44.8714		244169		0		94		0
7174		12035		135165		45.0383		245926		12		95		0
7175		12018		135160		45.3023		247103		1		95		0
7176		12012		135219		45.2228		246852		0		92		0
7177		12018		135186		45.4805		247959		37		93		0
7178		12033		135312		45.4918		248242		0		94		0
7179		12036		135778		45.3062		248251		0		93		0
7180		12031		135499		45.179		247166		27		96		0
7181		12019		136216		45.4217		249579		44		95		0
7182		12020		135418		45.673		249264		92		95		0
7183		11995		135750		45.5088		249123		0		93		0
7184		11983		135030		45.6967		248659		25		94		0
7185		11974		135516		45.4236		248305		0		94		0
7186		11955		134873		45.5801		247838		78		93		0
7187		11944		135327		45.3029		247412		0		93		0
7188		11936		134841		45.6279		247997		0		93		0
7189		11933		135786		45.1558		247585		0		93		0
7190		11923		135000		45.2277		246475		0		93		0
7191.02		11916		135397		45.2197		247164		0		94		0
7192		11897		135426		44.9208		245875		0		97		0
7193.01		11885		135269		44.8609		245323		0		96		0
7194		11873		134885		44.9744		245131		0		92		0
7195.01		11856		134645		44.7517		243709		0		92		0
7195.99		11854		134866		44.621		243533		21		92		0
7197.01		11853		134611		44.6098		243023		0		94		0
7198		11841		133348		44.7368		241296		43		92		0
7199		11827		134351		44.3006		241207		25		91		0
7200		11826		133793		44.2303		239903		4		92		0
7201		11802		133431		44.2132		239180		0		92		0
7202		11791		133567		44.0699		238811		17		92		0
7202.99		11786		133343		43.9949		238091		0		94		0
7204		11770		133204		43.7783		236926		0		94		0
7204.99		11763		133715		43.8397		238095		17		95		0
7206.01		11743		133084		43.6394		236129		18		94		0
7207		11724		132500		43.7677		235630		0		93		0
7208		11714		132433		43.5985		234804		0		94		0
7209		11705		132082		43.596		234171		0		93		0
7210.01		11692		132646		43.4815		234695		0		92		0
7211		11697		132605		43.1851		233398		0		95		0
7212		11693		132557		43.2738		233678		0		95		0
7213		11688		131677		43.2494		232028		0		94		0
7214.01		11677		132297		43.2581		233156		1		94		0
7215		11661		131727		43.1508		231713		1		94		0
7216.01		11657		132264		43.1155		232513		63		93		0
7217		11640		131698		42.9707		230930		0		92		0
7218		11636		131583		42.9615		230692		45		92		0
7219		11631		131440		43.2004		231410		0		91		0
7220		11618		131313		43.2572		231418		73		91		0
7221		11610		132267		42.8372		231387		0		91		0
7222		11594		131575		43.0412		231000		93		92		0
7223		11595		131863		42.9084		230967		25		92		0
7224		11592		131270		42.7844		229430		0		94		0
7225		11575		130778		42.9858		229378		0		95		0
7226		11570		131276		42.8361		229648		0		94		0
7227		11560		131387		42.9593		230339		0		92		0
7228		11562		131481		42.5883		229014		0		91		0
7229		11551		130911		42.8393		229023		25		92		0
7230		11543		131532		42.8184		230025		18		93		0
7231		11541		131339		42.8401		229775		7		94		0
7232		11537		130969		42.7752		228867		12		95		0
7233		11534		130721		42.8734		228827		0		95		0
7234		11520		130876		42.7926		228775		0		93		0
7235		11512		130883		42.5979		228011		85		95		0
7236		11501		130785		43.0499		229648		0		93		0
7237		11521		130679		42.9076		228891		0		93		0
7238		11507		131032		42.7812		229002		0		92		0
7239		11492		131128		42.8488		229440		0		91		0
7240.01		11480		131239		42.9123		229890		0		92		0
7241		11471		131267		42.5534		228503		101		92		0
7242		11462		130646		42.6613		227850		0		93		0
7243		11453		130705		42.7831		228438		0		95		0
7244		11435		131315		42.5926		228742		3		94		0
7245.01		11429		131993		42.4302		229275		7		94		0
7246		11414		130438		42.7364		227785		0		93		0
7247.01		11414		131240		42.5766		228548		0		92		0
7248		11403		131545		42.5993		229170		0		94		0
7249		11393		131241		42.7106		229084		0		92		0
