# XAS / LUCIA / SOLEIL : 
# Date : jeu. 27 mai 2021
#
# TARGET : GFL_DR21_01_06_pt3
# Total number of scan(s) : 1
# Scan N° : 1
# Coordinates : 
#               Horizontal : 7892.21
#               Vertical : -5911.44
#               Depth : 13839.8
#               Rotation : 4.996
# ROI window : 
#               ROI_inf : 1295
#               ROI_sup : 1365
#
# Start of this scan : 10:32:55
# End of this scan : 10:52:35
#
# I0 current at start (µA) : 0
# USER COMMENTS : 
# 
# EXPERIMENTAL CONFIGURATION : 
# Undulator Harmonic : 21       Offset : nan
# Undulator Polarization : 0
# Low pass filter angle (°) : 0.319447         translation (µm) : -147
# Monochromator Crystal : 3: Si311
#
# SCAN : 
# Range		From(eV)	To(eV)		Step(eV)	Time(sec)
## 1		7070		7105		2		1.5
## 2		7105.1		7121		0.1		1.5
## 3		7121.5		7160		0.5		1.5
## 4		7161		7250		1		1.5
#
# Energy	Io		FY		DeadTime		FY_c		TEY		It		Ctr4
7069.99		20817		1755		4.17041		1831.38		0		113		0
7072		20677		1855		4.35091		1939.38		0		112		0
7074		20579		1941		4.22315		2026.59		0		112		0
7076		20529		2019		4.21956		2107.95		0		115		0
7078		20469		1981		4.3033		2070.08		0		110		0
7080		20449		2070		4.07358		2157.9		0		114		0
7082		20444		2171		4.13952		2264.75		0		113		0
7084		20395		2253		4.26718		2353.42		0		110		0
7086		20383		2258		4.22336		2357.57		0		113		0
7088		20340		2442		4.14549		2547.61		0		112		0
7090		20303		2563		4.35366		2679.66		0		113		0
7092		20286		2775		4.10635		2893.83		0		110		0
7094		20255		2913		4.1655		3039.62		0		114		0
7096		20181		2975		4.27691		3107.92		0		112		0
7098		20141		3408		4.36813		3563.67		0		114		0
7100		20143		3576		4.47055		3743.35		0		114		0
7102		20106		4141		4.49321		4335.82		0		112		0
7104		20052		4543		4.47381		4755.76		0		109		0
7105.1		20017		4910		4.47115		5139.81		0		112		0
7105.2		20014		4977		4.41429		5206.85		0		111		0
7105.3		20000		5143		4.63085		5392.73		0		112		0
7105.41		20000		5060		4.46622		5296.56		0		112		0
7105.51		19982		5098		4.5818		5342.8		0		112		0
7105.61		19981		4952		4.52555		5186.73		0		114		0
7105.71		19966		5127		4.47366		5367.11		0		110		0
7105.8		19943		5108		4.7414		5362.25		0		113		0
7105.9		19951		5145		4.68427		5397.85		0		112		0
7105.99		19954		5212		4.50157		5457.68		0		110		0
7106.09		19959		5279		4.75076		5542.3		0		113		0
7106.19		19957		5256		4.58999		5508.86		0		110		0
7106.29		19932		5256		4.74637		5517.9		0		113		0
7106.4		19944		5277		4.39298		5519.47		0		113		0
7106.5		19916		5497		4.59014		5761.46		0		112		0
7106.6		19929		5507		4.55927		5770.07		0		113		0
7106.7		19931		5381		4.68881		5645.72		0		111		0
7106.8		19908		5572		4.71684		5847.83		0		112		0
7106.9		19896		5470		4.72619		5741.35		0		113		0
7107		19883		5640		4.72435		5919.67		0		112		0
7107.1		19888		5752		4.54609		6025.94		0		115		0
7107.2		19887		5633		4.73043		5912.7		0		114		0
7107.3		19899		5834		4.60228		6115.45		0		113		0
7107.41		19881		5796		4.78479		6087.26		0		112		0
7107.51		19870		5941		4.71452		6234.95		0		114		0
7107.61		19863		6018		4.68821		6314.01		0		113		0
7107.71		19861		6039		4.65276		6333.69		0		111		0
7107.8		19863		6003		4.75042		6302.39		0		113		0
7107.9		19857		6050		4.84378		6357.97		0		112		0
7107.99		19868		6060		4.75456		6362.51		0		114		0
7108.09		19867		6128		4.7213		6431.66		0		113		0
7108.19		19865		6234		4.71074		6542.19		0		114		0
7108.29		19866		6302		4.71748		6614.02		0		112		0
7108.4		19862		6310		4.57374		6612.44		0		112		0
7108.5		19853		6560		4.75076		6887.19		0		112		0
7108.6		19858		6617		4.85201		6954.43		0		113		0
7108.7		19844		6707		4.93231		7054.97		0		113		0
7108.8		19827		6745		4.88307		7091.27		0		110		0
7108.9		19843		6873		4.81705		7220.83		0		112		0
7109		19830		7127		4.79255		7485.76		0		112		0
7109.1		19851		7082		4.88036		7445.36		0		111		0
7109.2		19837		7228		4.89922		7600.36		0		114		0
7109.3		19841		7251		4.78086		7615.07		0		111		0
7109.41		19842		7419		4.82782		7795.35		0		112		0
7109.51		19846		7548		4.81323		7929.67		0		113		0
7109.61		19821		7606		4.95716		8002.71		0		111		0
7109.71		19816		7806		4.9498		8212.5		0		110		0
7109.8		19820		7749		4.91746		8149.76		0		113		0
7109.9		19832		7928		4.91578		8337.87		0		109		0
7109.99		19823		8180		4.94692		8605.72		0		109		0
7110.09		19820		8470		4.96698		8912.69		0		112		0
7110.19		19809		8469		5.07509		8921.79		0		109		0
7110.29		19811		8740		5.01961		9201.9		0		109		0
7110.4		19816		8976		5.14212		9462.58		0		112		0
7110.5		19789		9260		5.12525		9760.24		0		112		0
7110.6		19791		9831		5.37489		10389.4		0		109		0
7110.7		19787		10164		5.26007		10728.3		0		111		0
7110.8		19774		10336		5.45263		10932.1		0		110		0
7110.9		19760		10881		5.46093		11509.5		0		110		0
7111		19755		11263		5.40092		11906		0		111		0
7111.1		19750		12063		5.37566		12748.3		0		110		0
7111.2		19736		12751		5.82938		13540.3		0		112		0
7111.3		19743		13569		5.77579		14400.8		0		111		0
7111.41		19752		14564		5.82253		15464.4		0		111		0
7111.51		19753		15297		6.16318		16301.7		0		109		0
7111.61		19728		16349		6.27012		17442.7		0		113		0
7111.7		19723		17493		6.16943		18643.2		0		110		0
7111.8		19714		18359		6.53737		19643.1		0		110		0
7111.9		19716		19373		6.53451		20727.4		0		113		0
7111.99		19703		20649		6.74865		22143.4		0		110		0
7112.1		19704		21261		6.93568		22845.5		0		113		0
7112.19		19699		21773		6.8055		23363		0		113		0
7112.29		19682		22183		6.78172		23796.8		0		113		0
7112.4		19672		22301		6.94637		23965.7		0		112		0
7112.5		19676		21902		7.07874		23570.5		0		114		0
7112.6		19676		21685		6.92224		23297.7		0		114		0
7112.7		19666		21365		6.70831		22901.3		0		112		0
7112.8		19658		20894		6.79142		22416.4		0		114		0
7112.9		19641		20355		6.84917		21851.7		0		113		0
7113		19623		20158		6.72335		21611		0		113		0
7113.1		19625		20184		6.69382		21632		0		112		0
7113.2		19633		20216		6.60416		21645.5		0		112		0
7113.3		19614		20192		6.71072		21644.5		0		114		0
7113.41		19599		20344		6.62246		21786.8		0		112		0
7113.51		19597		20695		6.64156		22167.3		0		113		0
7113.61		19593		20858		6.76749		22372		0		115		0
7113.7		19580		20920		6.74933		22434.2		0		112		0
7113.8		19575		21070		6.81434		22610.8		0		112		0
7113.9		19572		20781		6.70912		22275.5		0		112		0
7113.99		19588		21174		6.70379		22695.5		0		112		0
7114.09		19591		20794		6.54897		22251.2		0		114		0
7114.19		19597		20206		6.67447		21651.1		0		113		0
7114.3		19584		20295		6.83633		21784.2		0		116		0
7114.4		19569		20139		6.86901		21624.4		0		112		0
7114.5		19572		19843		6.53958		21231.4		0		113		0
7114.6		19557		19514		6.56339		20884.7		0		114		0
7114.7		19564		19225		6.50298		20562.2		0		113		0
7114.8		19559		19269		6.58165		20626.6		0		111		0
7114.9		19575		19164		6.6653		20532.6		0		112		0
7115		19575		19148		6.47785		20474.3		0		111		0
7115.1		19557		18971		6.40561		20269.4		0		110		0
7115.2		19551		19192		6.36309		20496.2		0		111		0
7115.31		19556		19346		6.53547		20698.8		0		110		0
7115.41		19565		19830		6.57359		21225.3		0		112		0
7115.51		19570		20014		6.59921		21428.1		0		111		0
7115.61		19567		20462		6.67543		21925.6		0		111		0
7115.7		19561		20787		6.66219		22270.7		0		113		0
7115.8		19568		21731		6.8451		23327.8		0		112		0
7115.9		19554		22220		6.95893		23881.9		0		112		0
7115.99		19553		22620		7.0115		24325.6		0		111		0
7116.09		19566		23778		7.06319		25585.1		0		110		0
7116.19		19566		24595		7.27947		26525.9		0		112		0
7116.3		19563		25170		7.40164		27181.9		0		111		0
7116.4		19541		26564		7.65609		28766.4		0		113		0
7116.5		19550		27970		7.75663		30322		0		111		0
7116.6		19529		28749		7.95117		31232.3		0		112		0
7116.7		19530		30269		8.25666		32993.1		0		110		0
7116.8		19553		32109		8.34869		35033.9		0		112		0
7116.9		19566		33424		8.62976		36580.8		0		109		0
7117		19555		35319		9.07296		38843.2		0		111		0
7117.1		19555		37362		9.11142		41107.5		0		112		0
7117.2		19559		39355		9.63343		43550.4		0		110		0
7117.31		19547		40902		9.74854		45320		0		110		0
7117.41		19546		43275		9.9961		48081.2		0		115		0
7117.51		19551		45174		10.34		50383.7		0		112		0
7117.61		19557		47157		10.7199		52819.2		0		113		0
7117.7		19559		49778		10.9949		55927.1		0		113		0
7117.8		19538		52479		11.3284		59183.6		0		112		0
7117.9		19561		54347		12.0112		61765.8		0		114		0
7117.99		19537		57764		12.266		65839.9		0		113		0
7118.09		19526		60801		12.7283		69668.6		0		114		0
7118.19		19517		63930		13.4094		73830.2		0		114		0
7118.3		19504		67484		13.7213		78216.3		0		114		0
7118.4		19510		70709		14.4321		82635		0		114		0
7118.5		19510		74243		14.8689		87210.2		0		112		0
7118.6		19519		78152		15.6504		92652.5		0		113		0
7118.7		19545		81114		16.2015		96796.5		0		112		0
7118.8		19550		85018		16.8503		102247		0		111		0
7118.9		19534		88910		17.5364		107817		0		114		0
7119		19500		92797		18.0263		113203		0		110		0
7119.1		19514		96637		18.7272		118904		0		112		0
7119.21		19524		99376		19.3164		123168		0		112		0
7119.31		19522		102783		20.0139		128501		0		110		0
7119.41		19544		105924		20.5068		133249		0		113		0
7119.5		19540		109100		20.9433		138002		0		113		0
7119.61		19540		111486		21.7118		142405		0		114		0
7119.7		19551		114384		22.1118		146857		0		113		0
7119.8		19546		117458		22.5856		151726		0		113		0
7119.89		19550		120580		23.1532		156910		0		112		0
7119.99		19540		123389		23.5813		161464		0		114		0
7120.09		19543		126427		24.2226		166840		0		112		0
7120.19		19540		129176		24.8906		171984		0		112		0
7120.3		19530		131191		25.3222		175676		0		114		0
7120.4		19532		133251		25.8136		179616		0		112		0
7120.5		19514		135616		26.1518		183642		0		115		0
7120.6		19531		136914		26.6801		186735		0		114		0
7120.7		19520		140174		26.9622		191920		0		112		0
7120.8		19521		141675		27.2798		194822		0		113		0
7120.9		19501		142863		27.7287		197676		0		114		0
7121.5		19477		151207		29.5689		214688		0		111		0
7121.99		19485		158267		30.8485		228870		0		114		0
7122.5		19475		164486		32.6881		244364		0		112		0
7123		19449		173264		34.256		263544		0		111		0
7123.5		19459		179334		35.9175		279849		0		112		0
7123.99		19451		186091		37.9423		299868		0		111		0
7124.5		19438		192127		39.7237		318744		0		112		0
7125		19410		195971		41.3347		334049		0		111		0
7125.5		19210		199047		41.9485		342880		0		110		0
7125.99		19304		201813		42.6684		352010		0		113		0
7126.5		19291		203042		42.9913		356160		0		111		0
7127		19263		202480		43.194		356442		0		113		0
7127.5		19242		203193		43.018		356592		0		108		0
7127.99		19210		202180		43.1073		355370		0		110		0
7128.5		19184		202321		42.8388		353948		0		109		0
7129		19177		201070		42.7782		351387		0		112		0
7129.5		19139		200663		42.707		350240		0		108		0
7129.99		19112		199558		42.2727		345691		0		110		0
7130.49		19120		199501		42.0754		344415		0		110		0
7131		19104		199073		41.6782		341336		0		111		0
7131.5		19089		197508		41.2619		336252		0		110		0
7131.99		19098		196088		41.025		332494		0		110		0
7132.49		19069		194592		40.5293		327207		0		112		0
7133		19059		193527		40.1082		323128		0		111		0
7133.51		19079		192787		39.7687		320078		0		114		0
7133.99		19071		191563		39.3914		316066		0		111		0
7134.49		19090		190829		39.2599		314173		0		113		0
7134.99		19082		189329		39.0434		310597		0		111		0
7135.5		19080		189209		38.7806		309067		0		113		0
7135.99		19110		188621		38.5738		307069		0		109		0
7136.49		19077		186836		38.4436		303520		0		111		0
7137		18975		186984		38.0325		301745		0		111		0
7137.5		18877		185623		37.4926		296962		0		112		0
7137.99		19069		184875		37.8784		297602		0		113		0
7138.5		19062		184997		37.6522		296718		0		114		0
7139		19055		184530		37.5888		295668		0		111		0
7139.5		19050		184207		37.2985		293784		0		114		0
7140		19044		182920		37.1542		291062		0		113		0
7140.49		19061		183294		37.0276		291070		0		114		0
7140.99		19047		182811		36.9697		290037		0		110		0
7141.5		19059		182504		36.7492		288540		0		114		0
7141.99		19040		181165		36.5807		285662		0		110		0
7142.5		19043		180110		36.5347		283793		0		111		0
7142.99		19021		180173		36.1767		282300		0		112		0
7143.5		18908		178436		35.987		278750		0		113		0
7144		18896		177888		35.6573		276470		0		111		0
7144.49		19003		177371		35.7429		276033		0		111		0
7145		18989		177189		35.2675		273725		0		114		0
7145.5		18990		176337		35.2444		272312		0		111		0
7145.99		18993		175153		34.9987		269461		0		113		0
7146.49		18992		174430		34.6446		266895		0		114		0
7146.99		18973		172622		34.6482		264143		0		113		0
7147.5		18982		172598		34.1013		261914		0		112		0
7147.99		18958		171789		34.0585		260517		0		113		0
7148.49		18945		171098		33.9303		258966		0		111		0
7149		18949		170849		33.481		256842		0		113		0
7149.5		18939		169083		33.4854		254204		0		114		0
7149.99		18940		168843		33.4985		253893		0		113		0
7150.49		18937		168423		33.0777		251669		0		113		0
7150.99		18922		167609		33.1069		250563		0		112		0
7151.5		18907		166738		33.1427		249394		0		113		0
7151.99		18928		167040		33.0505		249501		0		113		0
7152.5		18890		167333		33.0354		249883		0		114		0
7152.99		18909		166644		32.863		248215		0		113		0
7153.5		18916		166996		32.8188		248575		0		111		0
7154		18892		166517		32.8392		247938		0		112		0
7154.5		18888		166452		32.7944		247676		0		110		0
7155		18878		167011		32.8832		248836		0		111		0
7155.5		18867		166762		32.7715		248052		0		109		0
7156		18850		166862		32.9649		248918		0		111		0
7156.49		18873		166300		33.1081		248610		0		109		0
7156.99		18882		166658		32.902		248380		0		112		0
7157.5		18924		167272		33.0669		249909		0		109		0
7157.99		18643		166964		32.7627		248320		0		113		0
7158.5		18820		167926		33.2389		251533		0		112		0
7158.99		18868		167802		33.3403		251729		0		111		0
7159.5		18867		168539		33.0768		251840		0		112		0
7160		18846		169099		33.3213		253603		0		112		0
7161.01		18854		168794		33.5478		254008		0		110		0
7162.01		18844		170252		33.6691		256671		0		112		0
7163		18846		171251		33.8983		259072		0		113		0
7164.01		18818		171423		34.0784		260041		0		112		0
7165		18803		171553		34.3802		261435		0		113		0
7166.01		18774		173725		34.3388		264578		0		111		0
7167		18747		173110		34.6016		264701		0		112		0
7168.01		18743		173603		34.6381		265603		0		113		0
7169		18722		174565		34.8665		268011		0		111		0
7170.01		18694		174944		35.095		269539		0		113		0
7171.01		18691		176076		35.0652		271158		0		113		0
7172.01		18676		177440		35.3885		274626		0		115		0
7173		18666		178027		35.5034		276025		0		112		0
7174.01		18663		178617		35.6749		277679		0		112		0
7175		18645		178018		35.7836		277216		0		113		0
7176.01		18639		178394		35.7351		277592		0		111		0
7177		18605		178899		35.7186		278306		0		113		0
7178.01		18606		178940		35.6898		278245		0		114		0
7179		18590		178192		35.8308		277691		0		113		0
7180		18581		178206		35.7108		277194		0		114		0
7181		18568		178739		35.9622		279115		0		113		0
7182.01		18555		178023		35.6906		276823		0		114		0
7183		18549		178683		35.6669		277747		0		112		0
7184.01		18526		178979		35.6811		278268		0		114		0
7185		18504		177354		35.9211		276774		0		113		0
7186.01		18491		178253		35.6439		276979		0		114		0
7187		18452		178149		35.6156		276696		0		112		0
7188.01		18447		177759		35.7019		276461		0		114		0
7189		18433		178541		35.4518		276601		0		112		0
7190		18426		177299		35.4213		274547		0		115		0
7191		18405		176993		35.3945		273959		0		113		0
7192.01		18383		177403		35.212		273821		0		115		0
7193		18353		176905		35.0337		272303		0		115		0
7194		18352		176467		35.0445		271674		0		111		0
7195		18329		176183		35.0687		271337		0		112		0
7196		18325		175692		35.0783		270621		0		111		0
7197		18340		175355		34.8409		269118		0		114		0
7198		18314		174521		34.8991		268078		0		112		0
7199		18315		174442		34.7472		267333		0		113		0
7200		18306		174598		34.7287		267496		0		110		0
7201		18267		174052		34.7274		266654		0		112		0
7202		18270		174396		34.6362		266808		0		111		0
7203		18243		173941		34.2772		264658		0		112		0
7204		18245		173538		34.4691		264818		0		111		0
7205		18245		173704		34.363		264643		0		113		0
7206		18240		174036		34.0917		264058		0		110		0
7207		18225		172758		34.2375		262700		0		112		0
7208		18221		171971		34.424		262247		0		111		0
7209		18202		172254		34.2557		262006		0		110		0
7210.01		18178		172604		34.1067		261945		0		114		0
7211		18167		173212		34.0301		262562		0		111		0
7212		18141		171024		34.0179		259197		0		113		0
7213		18126		171220		34.0061		259448		0		110		0
7214.01		18112		171221		34.0378		259575		0		113		0
7215		18098		171373		33.8848		259204		0		111		0
7216		18077		170500		34.0224		258421		0		112		0
7217		18071		171894		33.6097		258914		0		112		0
7218		18044		171221		33.6226		257951		0		111		0
7219		18044		171140		33.6982		258123		0		113		0
7220.01		18044		171217		33.7989		258632		0		111		0
7221		18022		170441		33.6925		257046		0		113		0
7222.01		18028		170190		33.7967		257072		0		111		0
7223		18024		171457		33.5538		258039		0		113		0
7224		17975		170500		33.8107		257595		0		112		0
7225		17968		170422		33.5102		256313		0		114		0
7226		17959		170826		33.5598		257112		0		112		0
7227.01		17945		170784		33.6135		257257		0		113		0
7228.01		17939		171346		33.5056		257685		0		110		0
7229.01		17943		170289		33.4358		255827		0		112		0
7230		17934		170682		33.4766		256574		0		112		0
7231.02		17944		170192		33.6678		256575		0		112		0
7232		17932		170018		33.6344		256184		0		112		0
7233		17946		171187		33.3709		256925		0		112		0
7234		17950		170570		33.5715		256772		0		112		0
7235.01		17919		169901		33.6093		255911		0		113		0
7236		17897		170543		33.6309		256961		0		111		0
7237		17885		170787		33.3877		256390		0		112		0
7238		17850		170186		33.6318		256427		0		110		0
7239		17834		170524		33.3945		256021		0		110		0
7240		17799		170595		33.42		256226		0		109		0
7241.01		17783		169684		33.5162		255226		0		110		0
7242		17786		170345		33.4942		256136		0		109		0
7243		17762		171164		33.3176		256685		0		112		0
7244		17759		170666		33.3428		256035		0		112		0
7245.01		17732		170346		33.5279		256267		0		110		0
7246		17693		170772		33.4364		256554		0		111		0
7247		17676		170018		33.4649		255531		0		109		0
7248		17694		170643		33.5693		256874		0		109		0
7249		17679		169600		33.6221		255507		0		110		0
