# XAS / LUCIA / SOLEIL : 
# Date : jeu. 27 mai 2021
#
# TARGET : GFL_PL_780_11_07_test100prct2
# Total number of scan(s) : 10
# Scan N° : 4
# Coordinates : 
#               Horizontal : -10280.1
#               Vertical : -11510.7
#               Depth : 13840
#               Rotation : 4.996
# ROI window : 
#               ROI_inf : 1295
#               ROI_sup : 1365
#
# Start of this scan : 12:09:41
# End of this scan : 12:10:09
#
# I0 current at start (µA) : 0
# USER COMMENTS : 
# 
# EXPERIMENTAL CONFIGURATION : 
# Undulator Harmonic : 21       Offset : nan
# Undulator Polarization : 0
# Low pass filter angle (°) : 0.319447         translation (µm) : -147
# Monochromator Crystal : 3: Si311
#
# SCAN : 
# Range		From(eV)	To(eV)		Step(eV)	Time(sec)
## 1		7110		7117		1		1
#
# Energy	Io		FY		DeadTime		FY_c		TEY		It		Ctr4
7110		13237		6647		6.9823		7145.95		0		75		0
7111		13189		9500		7.59648		10281		0		73		0
7112.01		13146		17335		9.34678		19122.3		0		74		0
7113		13085		17593		9.33069		19403.5		0		74		0
7114.01		13067		18453		9.47338		20384.1		0		75		0
7115		13055		16151		8.87539		17724.1		0		74		0
7116		13044		18872		9.5447		20863.3		0		74		0
