# XAS / LUCIA / SOLEIL : 
# Date : jeu. 27 mai 2021
#
# TARGET : GFL_DR22_02_03_pt4
# Total number of scan(s) : 1
# Scan N° : 1
# Coordinates : 
#               Horizontal : -4961.99
#               Vertical : -10650.4
#               Depth : 13839.7
#               Rotation : 4.996
# ROI window : 
#               ROI_inf : 1295
#               ROI_sup : 1365
#
# Start of this scan : 07:35:16
# End of this scan : 07:54:17
#
# I0 current at start (µA) : 0
# USER COMMENTS : 
# 
# EXPERIMENTAL CONFIGURATION : 
# Undulator Harmonic : 21       Offset : nan
# Undulator Polarization : 0
# Low pass filter angle (°) : 0.319543         translation (µm) : -147
# Monochromator Crystal : 3: Si311
#
# SCAN : 
# Range		From(eV)	To(eV)		Step(eV)	Time(sec)
## 1		7070		7105		2		1.5
## 2		7105.1		7121		0.1		1.5
## 3		7121.5		7160		0.5		1.5
## 4		7161		7250		1		1.5
#
# Energy	Io		FY		DeadTime		FY_c		TEY		It		Ctr4
7069.99		21116		4709		2.89521		4849.4		0		120		0
7072		20950		4814		2.99174		4962.46		0		119		0
7073.99		20844		4918		2.87014		5063.32		0		120		0
7076		20777		5161		2.83044		5311.33		0		120		0
7078		20713		5236		2.86831		5390.62		0		117		0
7080		20705		5807		3.00593		5986.96		0		120		0
7082		20703		6070		2.93702		6253.67		0		121		0
7084		20652		6378		2.95932		6572.5		0		118		0
7086		20643		6619		3.15516		6834.64		0		119		0
7088		20582		7194		3.08764		7423.2		0		118		0
7090		20561		7680		3.2314		7936.46		0		120		0
7092		20504		8089		3.17397		8354.16		0		118		0
7094		20468		8814		3.30411		9115.18		0		120		0
7096		20433		9294		3.55017		9636.1		0		120		0
7098		20387		10368		3.73271		10770		0		118		0
7100		20358		11645		3.87398		12114.3		0		120		0
7102		20344		12881		4.07904		13428.8		0		118		0
7104		20288		14475		4.25822		15118.8		0		120		0
7105.1		20233		15719		4.29097		16423.7		0		120		0
7105.2		20228		15804		4.39968		16531.3		0		118		0
7105.3		20226		15808		4.37741		16531.7		0		120		0
7105.41		20221		15979		4.42795		16719.3		0		119		0
7105.51		20225		16199		4.51607		16965.2		0		118		0
7105.61		20227		16301		4.23494		17021.9		0		118		0
7105.71		20229		16565		4.45391		17337.2		0		118		0
7105.81		20217		16406		4.55106		17188.2		0		119		0
7105.9		20208		16609		4.39021		17371.7		0		118		0
7106		20206		16902		4.40506		17680.9		0		120		0
7106.09		20204		16897		4.43185		17680.6		0		120		0
7106.19		20199		17010		4.4634		17804.7		0		121		0
7106.29		20199		17179		4.62767		18012.6		0		121		0
7106.4		20189		17283		4.55507		18107.8		0		119		0
7106.5		20182		17347		4.5674		18177.2		0		121		0
7106.6		20178		17486		4.78566		18364.9		0		120		0
7106.7		20170		17802		4.56181		18652.9		0		118		0
7106.8		20165		17918		4.64706		18791.2		0		120		0
7106.9		20160		18098		4.83281		19017.1		0		122		0
7107		20161		18247		4.72053		19151		0		121		0
7107.1		20162		18394		4.72495		19306.2		0		121		0
7107.2		20147		18348		4.82901		19279		0		119		0
7107.3		20152		18835		4.81466		19787.7		0		120		0
7107.41		20155		18833		4.8071		19784		0		122		0
7107.51		20150		18801		4.83998		19757.2		0		121		0
7107.61		20141		18790		4.61103		19698.3		0		118		0
7107.71		20111		19347		4.93357		20351		0		121		0
7107.8		20104		19292		4.92156		20290.6		0		120		0
7107.9		20095		19610		4.83057		20605.4		0		119		0
7107.99		20105		19975		4.88531		21001		0		121		0
7108.1		20094		19987		4.84079		21003.7		0		120		0
7108.19		20086		20045		4.82703		21061.7		0		120		0
7108.29		20092		20151		5.06315		21225.7		0		121		0
7108.4		20077		20281		4.93495		21333.8		0		120		0
7108.5		20071		21019		5.11369		22151.8		0		120		0
7108.6		20072		21098		5.16627		22247.4		0		122		0
7108.7		20058		21236		5.17498		22394.9		0		121		0
7108.8		20064		21508		5.37873		22730.6		0		119		0
7108.9		20050		21689		5.29702		22902.1		0		120		0
7109		20050		22028		5.18583		23232.8		0		122		0
7109.1		20032		22285		5.42074		23562.2		0		121		0
7109.2		20034		22664		5.45067		23970.6		0		121		0
7109.3		20026		23183		5.50528		24533.6		0		119		0
7109.41		20027		23097		5.45461		24429.5		0		121		0
7109.51		20001		23472		5.58285		24859.9		0		121		0
7109.61		20004		23682		5.51396		25064		0		118		0
7109.7		20003		23922		5.3497		25274.1		0		119		0
7109.8		19995		24588		5.56181		26036.1		0		119		0
7109.9		19971		24938		5.49387		26387.7		0		117		0
7110		19964		25299		5.63002		26808.3		0		118		0
7110.1		19965		25869		5.70242		27433.4		0		120		0
7110.19		19957		26473		5.98127		28157.2		0		118		0
7110.29		19954		27002		6.01525		28730.2		0		119		0
7110.4		19972		27508		6.02148		29270.5		0		119		0
7110.5		19963		28335		6.0089		30146.5		0		122		0
7110.6		19984		29454		6.18259		31395		0		119		0
7110.7		19982		29998		6.4806		32076.8		0		118		0
7110.8		19977		30779		6.51155		32922.8		0		120		0
7110.9		19971		32374		6.71729		34705.3		0		119		0
7111		19966		33752		6.89939		36253.3		0		118		0
7111.1		19942		35599		7.22116		38369.7		0		120		0
7111.2		19931		37132		7.39874		40098.8		0		118		0
7111.31		19938		39288		7.70101		42566		0		121		0
7111.41		19929		41449		8.16384		45133.6		0		119		0
7111.51		19944		42801		8.21771		46633.2		0		122		0
7111.61		19914		44366		8.50782		48491.6		0		121		0
7111.7		19908		46325		8.91279		50857.9		0		120		0
7111.8		19921		47037		8.94368		51657		0		120		0
7111.9		19901		47991		8.96151		52715.1		0		120		0
7111.99		19905		48594		9.06511		53438.2		0		122		0
7112.1		19891		48596		9.22441		53534.2		0		120		0
7112.19		19867		48956		9.29018		53969.9		0		120		0
7112.29		19877		49142		9.16083		54097.8		0		118		0
7112.4		19866		49017		9.29574		54040.5		0		123		0
7112.5		19860		48943		9.17611		53887.8		0		119		0
7112.6		19848		48173		9.33796		53134.7		0		120		0
7112.7		19836		48007		9.08996		52807.2		0		120		0
7112.8		19853		47098		8.97865		51743.9		0		121		0
7112.9		19821		46515		8.93397		51078.3		0		119		0
7113		19815		46071		8.86673		50553.4		0		120		0
7113.1		19811		45475		8.59068		49748.8		0		118		0
7113.2		19807		45505		8.77393		49881.6		0		121		0
7113.3		19809		45767		8.86842		50220.8		0		121		0
7113.41		19813		46294		8.86667		50798.1		0		120		0
7113.51		19804		46646		9.00683		51263.2		0		122		0
7113.61		19793		47558		9.08331		52309.4		0		120		0
7113.71		19803		48107		9.16171		52958.9		0		120		0
7113.8		19802		48398		9.14317		53268.4		0		119		0
7113.9		19801		49070		9.36979		54143.1		0		120		0
7113.99		19792		49097		9.45609		54224.5		0		123		0
7114.09		19800		49386		9.28407		54440.3		0		121		0
7114.19		19789		48518		9.07456		53360.2		0		120		0
7114.3		19791		48606		9.16905		53512.6		0		122		0
7114.4		19781		48327		9.02703		53122.4		0		121		0
7114.5		19786		48122		9.055		52913.3		0		120		0
7114.6		19787		48014		9.08777		52813.6		0		121		0
7114.7		19793		47906		9.02362		52657.6		0		119		0
7114.8		19792		48254		9.05577		53058.9		0		118		0
7114.9		19797		48157		9.14923		53006.7		0		120		0
7115		19783		49028		9.33732		54077.4		0		118		0
7115.1		19780		49575		9.27441		54642.8		0		121		0
7115.2		19769		50354		9.3286		55534.6		0		120		0
7115.3		19775		50496		9.48077		55784.8		0		119		0
7115.41		19785		51809		9.56341		57287.7		0		120		0
7115.5		19786		52426		9.80666		58126.2		0		118		0
7115.61		19788		53507		9.8119		59328.2		0		121		0
7115.7		19801		54516		10.1116		60648.5		0		121		0
7115.8		19788		55429		10.1506		61691		0		119		0
7115.9		19787		56598		10.4769		63221.7		0		120		0
7115.99		19781		58080		10.5113		64902		0		120		0
7116.09		19774		59512		10.7495		66679.8		0		118		0
7116.19		19796		61211		11.2069		68936.7		0		119		0
7116.3		19787		62911		11.4534		71048.5		0		120		0
7116.4		19785		64706		11.8861		73434.5		0		119		0
7116.5		19782		66224		12.1198		75357.1		0		120		0
7116.6		19783		68755		12.3178		78413.8		0		121		0
7116.7		19779		70901		12.6422		81161.6		0		120		0
7116.8		19762		73291		13.0833		84323.3		0		119		0
7116.9		19762		75806		13.5941		87732.4		0		121		0
7117		19767		78685		14.1072		91608.4		0		120		0
7117.1		19773		81944		14.4774		95815.6		0		118		0
7117.2		19766		85615		15.1039		100847		0		120		0
7117.31		19756		88591		15.8763		105310		0		120		0
7117.41		19766		92627		16.4493		110863		0		124		0
7117.51		19766		95844		16.9151		115357		0		122		0
7117.61		19758		100375		17.5798		121784		0		121		0
7117.7		19750		104859		18.3193		128377		0		120		0
7117.8		19773		109560		19.2911		135747		0		119		0
7117.89		19766		114389		20.3104		143543		0		119		0
7117.99		19776		120963		21.402		153901		0		121		0
7118.09		19761		127400		22.703		164819		0		120		0
7118.19		19769		134952		23.8535		177227		0		121		0
7118.3		19774		141004		25.2217		188563		0		123		0
7118.4		19755		148463		26.7435		202662		0		120		0
7118.5		19758		154610		28.3817		215881		0		121		0
7118.6		19744		161108		30.0282		230247		0		121		0
7118.7		19742		168460		31.5635		246155		0		121		0
7118.8		19746		176120		33.1853		263595		0		122		0
7118.9		19750		182290		34.998		280438		0		120		0
7119		19730		189385		36.826		299783		0		117		0
7119.1		19732		194855		38.653		317628		0		121		0
7119.2		19720		201415		40.2857		337298		0		119		0
7119.31		19733		205561		42.063		354801		0		120		0
7119.41		19732		210202		43.5107		372109		0		122		0
7119.5		19718		212293		44.9914		385927		0		121		0
7119.61		19729		217603		46.4616		406443		0		120		0
7119.7		19716		220419		47.8366		422555		0		122		0
7119.8		19720		224006		49.1203		440266		0		121		0
7119.89		19714		225626		50.4946		455761		0		121		0
7119.99		19716		228116		51.6848		472141		0		121		0
7120.09		19710		229140		52.8489		485969		0		120		0
7120.19		19705		230890		54.0225		502180		0		121		0
7120.3		19693		231277		54.742		511019		0		121		0
7120.4		19695		232121		55.7878		525016		0		121		0
7120.5		19716		232241		56.4792		533632		0		123		0
7120.6		19720		233860		57.1176		545352		0		121		0
7120.7		19708		233523		57.9807		555752		0		122		0
7120.8		19723		233718		58.4933		563085		0		123		0
7120.9		19716		234948		59.2244		576197		0		120		0
7121.5		19710		233647		63.0609		632519		0		121		0
7121.99		19682		231418		66.2356		685391		0		120		0
7122.5		19657		228110		68.8455		732191		0		120		0
7123		19645		221343		71.3658		773003		0		118		0
7123.5		19623		216460		73.8431		827546		0		121		0
7123.99		19615		205345		76.7704		883979		0		119		0
7124.5		19600		194535		79.3719		943056		0		121		0
7125		19524		185115		81.3618		993202		0		120		0
7125.5		19389		176102		82.7305		1.01973e+06		0		120		0
7126		19477		168523		84.0499		1.05657e+06		0		122		0
7126.5		19450		163588		84.9233		1.08504e+06		0		119		0
7127		19439		159768		85.2507		1.08322e+06		0		121		0
7127.51		19415		164637		84.7099		1.07676e+06		0		117		0
7127.99		19393		172478		83.7212		1.05952e+06		0		119		0
7128.5		19372		179237		82.5217		1.02548e+06		0		119		0
7129		19343		185024		81.2826		988515		0		120		0
7129.5		19331		187873		80.5568		966265		0		119		0
7129.99		19309		196796		79.3722		954035		0		119		0
7130.49		19311		199729		78.5926		932992		0		120		0
7131		19297		202113		77.7645		908965		0		120		0
7131.5		19279		205718		76.7539		884957		0		121		0
7131.99		19290		210999		75.4753		860353		0		120		0
7132.49		19273		215655		73.8973		826180		0		121		0
7133		19272		219874		72.4033		796742		0		120		0
7133.5		19262		222600		71.3608		777257		0		120		0
7133.99		19258		224558		70.4361		759568		0		120		0
7134.5		19247		226723		69.4646		742492		0		118		0
7135		19249		227279		69.1223		736063		0		121		0
7135.5		19252		227142		68.8506		729202		0		119		0
7135.99		19260		227801		68.5944		725351		0		119		0
7136.49		19242		227890		68.3731		720556		0		119		0
7137		19117		228261		68.0726		714938		0		119		0
7137.5		19075		229429		68.0136		717271		0		118		0
7138		19215		227960		68.7206		728787		0		119		0
7138.5		19203		226666		69.1741		735309		0		122		0
7139		19200		227284		69.7743		751956		0		119		0
7139.5		19202		224664		70.2543		755283		0		121		0
7140		19207		225064		70.3837		759933		0		119		0
7140.49		19215		224865		70.1739		753920		0		122		0
7140.99		19220		225273		69.9167		748830		0		120		0
7141.5		19207		226977		69.4703		743463		0		118		0
7141.99		19199		227397		69.1941		738161		0		119		0
7142.5		19193		227134		68.911		730593		0		118		0
7142.99		19199		229072		68.3366		723461		0		119		0
7143.5		19057		230469		67.6426		712260		0		118		0
7143.99		19100		230268		67.3509		705282		0		119		0
7144.49		19167		229324		67.5028		705673		0		118		0
7145		19171		230150		66.9813		697030		0		119		0
7145.5		19182		231137		66.5991		692007		0		119		0
7146		19163		232046		66.1916		686357		0		119		0
7146.49		19158		232161		65.8496		679819		0		118		0
7146.99		19138		232017		65.4471		671484		0		120		0
7147.5		19163		233670		64.8543		664862		0		119		0
7147.99		19141		232676		64.4521		654541		0		118		0
7148.49		19115		233974		63.9922		649788		0		118		0
7149		19127		235043		63.5886		645521		0		120		0
7149.5		19113		233164		63.4432		637813		0		121		0
7149.99		19105		233966		63.1205		634407		0		119		0
7150.5		19088		234372		63.1053		635246		0		118		0
7150.99		19077		235114		63.085		636906		0		121		0
7151.5		19076		235195		63.1945		639022		0		120		0
7151.99		19078		233980		63.5184		641364		0		123		0
7152.5		19041		234398		63.6254		644400		0		122		0
7152.99		19045		234117		64.0685		651565		0		120		0
7153.5		19055		232441		64.5732		656116		0		120		0
7154		19026		232231		64.9593		662746		0		120		0
7154.5		19019		232502		65.2756		669563		0		120		0
7154.99		19043		233267		65.4489		675136		0		118		0
7155.5		19032		232034		65.9212		680874		0		118		0
7155.99		19039		231488		66.2151		685182		0		120		0
7156.49		19041		231230		66.3722		687615		0		119		0
7156.99		19062		230415		66.7852		693713		0		119		0
7157.5		19093		230516		67.004		698617		0		118		0
7157.99		18863		230565		66.7532		693496		0		120		0
7158.5		18988		230924		66.9981		699729		0		120		0
7158.99		19000		230820		67.3254		706419		0		120		0
7159.5		19004		229834		67.6426		710299		0		120		0
7159.99		18989		227723		68.1411		714787		0		121		0
7161.01		18997		226820		68.541		721002		0		120		0
7162.01		18974		227668		68.8182		730131		0		119		0
7163		18980		227077		69.3266		740307		0		120		0
7164.01		18955		225718		69.8298		748150		0		121		0
7165		18938		224175		70.5733		761807		0		120		0
7166.01		18930		223197		71.0621		771296		0		119		0
7167		18903		221391		71.5939		779379		0		120		0
7168.01		18891		219754		72.1409		788806		0		117		0
7169		18872		220627		72.2873		796122		0		120		0
7170		18850		218330		72.7028		799825		0		119		0
7171		18847		219756		72.6252		802766		0		121		0
7172		18831		220504		72.6071		804967		0		119		0
7173		18820		220206		72.46		799587		0		121		0
7174		18839		220717		72.2539		795488		0		120		0
7175		18825		219813		72.2372		791755		0		120		0
7176.02		18803		222044		71.7917		787158		0		120		0
7177		18831		219999		71.8335		781067		0		120		0
7178		18807		220760		71.5666		776411		0		120		0
7179		18787		222185		71.2634		773179		0		120		0
7180		18790		224279		70.8145		768461		0		122		0
7181		18775		225333		70.6583		767961		0		121		0
7182		18748		224931		70.5415		763552		0		120		0
7183		18729		225543		70.281		758919		0		120		0
7184		18703		225058		70.0452		751327		0		122		0
7185		18690		227400		69.7011		750521		0		120		0
7186		18667		227100		69.4121		742449		0		122		0
7187		18651		226587		69.2424		736685		0		120		0
7188.01		18630		227037		68.9365		730880		0		119		0
7189		18613		227893		68.7237		728644		0		121		0
7190		18594		228138		68.5933		726400		0		121		0
7191		18589		229104		68.2771		722204		0		121		0
7192.01		18561		230410		68.1077		722463		0		121		0
7193		18550		228536		68.1055		716537		0		121		0
7194		18529		229458		67.9739		716471		0		117		0
7195		18523		229290		67.897		714233		0		116		0
7196.01		18497		230013		67.762		713483		0		118		0
7197		18510		229341		67.8669		713722		0		118		0
7198		18500		229006		67.7173		709377		0		116		0
7199		18484		230537		67.5048		709449		0		116		0
7200		18487		229622		67.4703		705884		0		114		0
7201		18454		228987		67.4848		704247		0		117		0
7202		18444		230126		67.4225		706395		0		119		0
7203		18428		230752		67.3237		706176		0		116		0
7204		18405		230298		67.3514		705383		0		117		0
7205		18403		230056		67.404		705779		0		118		0
7206		18389		228585		67.6437		706463		0		119		0
7207		18361		229325		67.5185		706016		0		118		0
7208		18369		229619		67.5119		706780		0		120		0
7209		18320		229844		67.4476		706073		0		119		0
7210.01		18307		229739		67.5664		708337		0		120		0
7211		18282		230256		67.5825		710282		0		120		0
7212.01		18266		229171		67.7758		711177		0		119		0
7213		18242		229829		67.7964		713674		0		120		0
7214		18242		229028		67.9802		715270		0		118		0
7215		18214		229364		68.0367		717584		0		118		0
7216.01		18199		228927		68.0327		716130		0		116		0
7217		18191		228127		68.1558		716384		0		118		0
7218.01		18176		229849		67.9623		717434		0		118		0
7219		18173		229766		67.9915		717828		0		117		0
7220.02		18154		229492		68.0951		719301		0		114		0
7221		18143		229680		67.9894		717513		0		117		0
7222.01		18163		229659		67.9777		717184		0		116		0
7222.99		18150		229471		68.0698		718664		0		117		0
7224		18119		228666		68.0985		716788		0		117		0
7225		18103		230462		67.8202		716169		0		117		0
7226		18102		228855		67.8238		711256		0		115		0
7227		18102		228098		67.9417		711510		0		117		0
7227.99		18111		229608		67.7311		711547		0		116		0
7229.01		18108		229278		67.8537		713233		0		116		0
7230		18093		228902		67.7294		709321		0		117		0
7231.02		18111		228161		67.7136		706678		0		116		0
7232		18041		229200		67.5825		707027		0		117		0
7233		18105		230462		67.4295		707578		0		115		0
7234		18118		229480		67.6043		708365		0		116		0
7235		18100		230888		67.3002		706085		0		117		0
7236		18083		230243		67.4566		707495		0		116		0
7237		18065		230440		67.3128		704986		0		118		0
7238		18033		229971		67.407		705584		0		118		0
7239		18024		229243		67.3737		702633		0		116		0
7240		18004		230444		67.3878		706619		0		118		0
7241		17987		231033		67.4224		709178		0		117		0
7242		17968		230781		67.4984		710061		0		119		0
7243		17950		230422		67.5399		709862		0		118		0
7244		17926		229275		67.8377		712868		0		119		0
7245		17917		229546		67.7204		711119		0		119		0
7246		17884		229702		67.8185		713770		0		117		0
7247		17884		228805		67.9651		714237		0		117		0
7248		17876		229751		67.8427		714460		0		118		0
7249		17860		228583		68.0369		715146		0		118		0
