# XAS / LUCIA / SOLEIL : 
# Date : ven. 28 mai 2021
#
# TARGET : GFL_PL_780_11_07_ptmaps1
# Total number of scan(s) : 1
# Scan N° : 1
# Coordinates : 
#               Horizontal : -106.954
#               Vertical : -216.255
#               Depth : 12273.9
#               Rotation : 4.996
# ROI window : 
#               ROI_inf : 1295
#               ROI_sup : 1365
#
# Start of this scan : 01:33:30
# End of this scan : 01:48:07
#
# I0 current at start (µA) : 0
# USER COMMENTS : 
# 
# EXPERIMENTAL CONFIGURATION : 
# Undulator Harmonic : 21       Offset : nan
# Undulator Polarization : 0
# Low pass filter angle (°) : 0.319638         translation (µm) : -147.5
# Monochromator Crystal : 3: Si311
#
# SCAN : 
# Range		From(eV)	To(eV)		Step(eV)	Time(sec)
## 1		7070		7105		1		1
## 2		7105.1		7121		0.1		1
## 4		7161		7250		1		1
#
# Energy	Io		FY		DeadTime		FY_c		TEY		It		Ctr4
7069.99		13541		4508		18.8983		5558.45		0		70		0
7071.01		13958		4551		18.8959		5611.31		0		70		0
7072		13909		4700		18.9012		5795.4		0		70		0
7073.01		13879		4629		18.9555		5711.68		0		69		0
7074		13842		4818		18.8433		5936.66		0		70		0
7075		13792		4861		18.9302		5996.07		0		70		0
7076		13796		5252		18.83		6470.37		0		70		0
7077		13785		5239		19.0025		6468.1		0		73		0
7078		13775		5486		18.942		6768		0		71		0
7078.99		13761		5602		18.9556		6912.26		0		71		0
7080		13748		5545		18.9533		6841.73		0		72		0
7080.99		13745		5920		19.116		7319.12		0		72		0
7082.01		13738		6085		19.0103		7513.3		0		71		0
7083		13734		6205		19.0435		7664.61		0		70		0
7084.02		13728		6438		18.9802		7946.2		0		70		0
7085		13719		6583		19.1334		8140.57		0		69		0
7086		13715		6875		19.1105		8499.25		0		72		0
7087		13704		6945		18.9897		8572.98		0		72		0
7088		13685		7273		19.1524		8995.94		0		72		0
7089		13666		7448		19.2992		9229.15		0		70		0
7090.01		13651		7828		19.1568		9682.95		0		71		0
7091		13631		8137		19.3273		10086.4		0		70		0
7092		13628		8524		19.351		10569.3		0		70		0
7093		13616		8551		19.5147		10624.3		0		71		0
7094		13596		8764		19.504		10887.5		0		71		0
7095		13597		9306		19.5188		11562.9		0		71		0
7096.01		13563		9739		19.6934		12127.3		0		70		0
7097		13544		10402		19.8148		12972.5		0		73		0
7098		13550		10829		19.7091		13487.2		0		72		0
7099		13524		11593		19.8622		14466.3		0		71		0
7100		13518		11849		20		14811.2		0		70		0
7101		13516		12747		20.295		15992.7		0		71		0
7102		13501		13295		20.5397		16731.6		0		70		0
7103		13474		14309		20.6552		18033.9		0		69		0
7104.01		13451		15078		20.74		19023.5		0		69		0
7105		13435		16317		21.0293		20662.1		0		71		0
7105.1		13440		16693		21.0248		21137		0		71		0
7105.2		13439		16583		21.2486		21057.4		0		71		0
7105.3		13435		16683		21.1043		21145.6		0		70		0
7105.41		13389		17096		21.2056		21697		0		69		0
7105.51		13398		17066		20.9819		21597.6		0		70		0
7105.61		13396		17196		21.1495		21808.4		0		72		0
7105.71		13398		17175		21.2115		21798.9		0		70		0
7105.8		13397		17461		21.0964		22129.5		0		72		0
7105.9		13398		17555		21.0908		22247.1		0		70		0
7106		13394		17752		21.0111		22474.1		0		71		0
7106.09		13399		18039		21.3621		22939.3		0		71		0
7106.19		13391		17843		21.2581		22660.1		0		72		0
7106.29		13382		18278		21.1174		23171.2		0		72		0
7106.4		13385		18334		21.3256		23303.7		0		70		0
7106.5		13375		18596		21.5571		23706.4		0		71		0
7106.6		13370		18396		21.6908		23491.5		0		70		0
7106.7		13355		18613		21.6486		23755.8		0		69		0
7106.8		13365		18846		21.4309		23986.5		0		72		0
7106.9		13347		19132		21.5334		24382.4		0		71		0
7107		13348		19560		21.7627		25000.9		0		71		0
7107.09		13341		19575		21.6358		24979.5		0		71		0
7107.2		13346		19765		21.9922		25337.2		0		71		0
7107.3		13343		20212		21.7335		25824.6		0		72		0
7107.4		13329		20132		21.8432		25758.5		0		69		0
7107.51		13327		20243		21.9769		25944.9		0		70		0
7107.61		13316		20483		21.8892		26223		0		70		0
7107.71		13328		20609		21.8965		26386.8		0		72		0
7107.8		13321		20946		22.0027		26854.8		0		71		0
7107.9		13319		21048		22.0384		26997.9		0		69		0
7108		13307		21391		22.165		27482.5		0		70		0
7108.09		13305		21634		21.9721		27726		0		70		0
7108.19		13306		21746		22.0223		27887.5		0		72		0
7108.29		13303		22141		22.1845		28453.2		0		72		0
7108.4		13286		22641		22.3205		29146.7		0		71		0
7108.5		13286		22710		22.4779		29294.9		0		69		0
7108.6		13289		22957		22.3713		29572.8		0		71		0
7108.7		13292		23289		22.583		30082.5		0		70		0
7108.8		13291		23388		22.6474		30235.6		0		71		0
7108.9		13283		23926		22.5166		30878.9		0		73		0
7109		13280		24343		22.8314		31545.2		0		70		0
7109.1		13261		24549		22.6201		31725.3		0		71		0
7109.2		13274		24781		22.9855		32177.1		0		73		0
7109.31		13276		25422		22.8841		32966		0		72		0
7109.41		13266		25640		22.9343		33270.3		0		71		0
7109.51		13255		26052		23.1234		33888.1		0		70		0
7109.61		13262		26316		23.2065		34268.5		0		69		0
7109.71		13253		26596		23.3814		34712.2		0		72		0
7109.8		13267		27073		23.4577		35370		0		71		0
7109.9		13249		27540		23.411		35958.2		0		70		0
7110		13250		28166		23.5896		36861.5		0		69		0
7110.1		13252		28657		23.8951		37654.6		0		70		0
7110.19		13252		29383		24.014		38669		0		71		0
7110.29		13275		30235		24.0158		39791.2		0		70		0
7110.4		13265		31303		24.4398		41427.9		0		69		0
7110.5		13259		32025		24.4953		42414.6		0		70		0
7110.6		13267		32682		24.7075		43406.7		0		71		0
7110.7		13273		33932		25.0603		45279		0		71		0
7110.8		13256		35124		25.2531		46990.5		0		68		0
7110.9		13257		36134		25.6772		48617.6		0		71		0
7111		13256		37551		26.0774		50797.8		0		70		0
7111.1		13260		39144		26.3304		53134.6		0		71		0
7111.2		13241		41319		27.0031		56603.8		0		70		0
7111.31		13243		43772		27.3732		60269.8		0		69		0
7111.41		13245		45927		28.1473		63918.2		0		70		0
7111.51		13242		48676		28.7168		68285.3		0		68		0
7111.61		13233		51186		29.3561		72456.3		0		71		0
7111.7		13237		53341		30.135		76348.7		0		68		0
7111.8		13226		55957		30.9891		81084.2		0		68		0
7111.9		13234		58523		31.6517		85624.7		0		69		0
7112		13212		61214		32.1792		90258.4		0		69		0
7112.1		13208		63428		32.7946		94379.4		0		69		0
7112.19		13215		64846		33.3144		97241.3		0		70		0
7112.3		13218		66071		33.6214		99536.7		0		69		0
7112.4		13221		66610		33.5679		100268		0		68		0
7112.5		13224		66721		33.946		101010		0		70		0
7112.6		13227		66612		33.8588		100712		0		72		0
7112.7		13217		66884		33.8812		101157		0		69		0
7112.8		13226		68308		34.0998		103654		0		68		0
7112.9		13206		68340		34.4668		104283		0		68		0
7113		13204		69915		34.8262		107275		0		68		0
7113.1		13203		71842		35.2518		110956		0		70		0
7113.2		13206		74273		35.475		115107		0		69		0
7113.3		13185		76035		36.6285		119983		0		68		0
7113.41		13195		78493		37.1527		124895		0		68		0
7113.51		13194		80056		37.7824		128671		0		71		0
7113.61		13191		81338		38.2883		131803		0		70		0
7113.71		13191		82085		38.6446		133786		0		68		0
7113.8		13188		82730		38.8403		135269		0		69		0
7113.9		13196		83559		38.8753		136703		0		71		0
7113.99		13201		83539		39.0085		136968		0		71		0
7114.09		13192		83087		38.8476		135869		0		70		0
7114.19		13196		82134		38.3724		133275		0		69		0
7114.29		13190		80753		38.4989		131303		0		69		0
7114.4		13184		80260		38.1387		129742		0		68		0
7114.5		13198		80475		37.8474		129480		0		69		0
7114.6		13182		79052		37.9937		127490		0		70		0
7114.7		13194		79470		37.9448		128063		0		71		0
7114.8		13197		79697		37.6037		127727		0		71		0
7114.9		13192		79225		37.5354		126832		0		68		0
7115		13177		79769		37.837		128322		0		68		0
7115.1		13191		80046		37.8415		128777		0		69		0
7115.2		13193		80349		38.1693		129950		0		70		0
7115.31		13189		80483		38.1888		130208		0		71		0
7115.41		13182		80942		38.3055		131198		0		68		0
7115.51		13183		81276		38.6322		132441		0		69		0
7115.61		13206		81667		38.6502		133117		0		70		0
7115.7		13204		82602		38.8584		135100		0		70		0
7115.8		13198		83263		39.1232		136773		0		67		0
7115.89		13198		83326		39.279		137228		0		68		0
7115.99		13195		85030		39.2735		140021		0		67		0
7116.09		13204		84740		39.9207		141047		0		68		0
7116.19		13183		85368		40.2015		142759		0		69		0
7116.3		13194		85978		40.6319		144822		0		70		0
7116.4		13184		88246		40.649		148685		0		71		0
7116.5		13180		88970		41.0685		150972		0		70		0
7116.6		13189		90221		41.4667		154136		0		72		0
7116.7		13194		91068		42.0361		157112		0		72		0
7116.8		13200		92310		42.3606		160151		0		70		0
7116.9		13199		94299		43.0178		165489		0		68		0
7117		13186		95404		43.5086		168882		0		70		0
7117.1		13190		96861		44.3122		173936		0		70		0
7117.2		13197		99254		44.7901		179776		0		69		0
7117.3		13192		100789		45.6773		185538		0		71		0
7117.41		13191		101794		46.2706		189457		0		71		0
7117.51		13191		103828		46.7129		194847		0		68		0
7117.61		13189		105172		47.5974		200700		0		71		0
7117.7		13194		106360		48.0918		204900		0		72		0
7117.8		13179		108772		48.8353		212592		0		69		0
7117.89		13184		110051		49.7771		219125		0		69		0
7117.99		13182		111708		50.4156		225289		0		69		0
7118.09		13179		113022		51.2993		232075		0		69		0
7118.19		13179		113928		52.3625		239156		0		68		0
7118.3		13179		116304		53.0663		247805		0		70		0
7118.4		13177		117727		54.0431		256168		0		70		0
7118.5		13172		118829		54.614		261818		0		71		0
7118.6		13173		120367		55.6485		271393		0		71		0
7118.7		13164		120759		56.6326		278456		0		71		0
7118.8		13172		122205		57.382		286745		0		72		0
7118.9		13169		123632		58.5314		298134		0		69		0
7119		13165		124462		59.3094		305874		0		69		0
7119.1		13156		124359		60.781		317089		0		69		0
7119.2		13165		126391		61.5071		328349		0		71		0
7119.31		13162		126043		62.6607		337561		0		69		0
7119.41		13151		126385		63.6196		347398		0		70		0
7119.5		13148		126559		64.5707		357215		0		72		0
7119.61		13157		127230		65.6805		370722		0		72		0
7119.7		13158		127249		66.786		383119		0		70		0
7119.8		13143		126863		67.9093		395326		0		71		0
7119.89		13178		127099		69.0792		411047		0		72		0
7120		13180		126660		70.1346		424103		0		69		0
7120.09		13179		125448		71.3012		437120		0		69		0
7120.19		13172		125342		72.3454		453241		0		71		0
7120.3		13161		123124		73.5106		464804		0		71		0
7120.4		13156		122173		74.4699		478545		0		69		0
7120.5		13168		122039		75.1366		490839		0		70		0
7120.6		13172		118968		76.2754		501455		0		73		0
7120.7		13167		118750		76.8016		511889		0		72		0
7120.8		13150		117317		77.5561		522713		0		72		0
7120.9		13156		116422		78.201		534071		0		70		0
7161		12166		86396		87.2694		678649		0		70		0
7162		12698		86602		87.3812		686293		0		70		0
7163.01		12695		86076		87.312		678403		0		69		0
7164.01		12681		84640		87.4109		672327		0		72		0
7165		12670		85985		87.6114		694063		0		72		0
7166.01		12654		83923		87.7612		685712		0		68		0
7167		12634		82801		87.9087		684800		0		69		0
7168.01		12634		84503		88.0992		710063		0		70		0
7169		12613		81499		88.2058		691007		0		68		0
7170		12607		85121		88.2193		722548		0		69		0
7171		12589		84252		88.4622		730224		0		69		0
7172.01		12586		79531		88.6342		699738		0		69		0
7173		12586		81209		88.9102		732288		0		68		0
7174.01		12569		80398		88.8253		719467		0		69		0
7175		12551		78900		88.9898		716606		0		69		0
7176.01		12550		79595		89.0475		726730		0		71		0
7177		12547		75627		89.2067		700686		0		70		0
7178		12540		81039		89.1002		743488		0		69		0
7179		12542		74791		89.2519		695853		0		70		0
7180		12533		74558		89.5527		713656		0		70		0
7181		12526		73576		89.5017		700837		0		71		0
7182		12524		74178		89.5533		710062		0		71		0
7183		12499		73660		89.5267		703311		0		70		0
7184		12488		70003		89.5415		669341		0		71		0
7185		12476		73534		89.4592		697613		0		70		0
7186		12467		76486		89.4346		723931		0		71		0
7187		12457		76327		89.3796		718686		0		71		0
7188.01		12454		72070		89.421		681253		0		71		0
7189		12430		78640		89.3093		735593		0		69		0
7190.01		12414		78734		89.1245		723956		0		69		0
7191		12411		75032		89.18		693455		0		71		0
7192.01		12388		80014		88.9455		723814		0		70		0
7193		12376		80301		88.8648		721148		0		71		0
7194		12372		75941		88.9463		687017		0		69		0
7195		12369		79711		88.7121		706163		0		70		0
7196		12381		80592		88.6673		711143		0		71		0
7197		12363		83245		88.3691		715720		0		70		0
7198		12358		83338		88.352		715472		0		69		0
7199		12353		78208		88.3277		670033		0		69		0
7200		12358		80807		88.0905		678509		0		71		0
7201		12330		84949		87.9833		706924		0		71		0
7202		12325		84376		87.919		698419		0		71		0
7203		12306		85390		87.6677		692410		0		69		0
7204		12310		81479		87.7699		666216		0		69		0
7205		12304		87268		87.6191		704860		0		70		0
7206		12299		84572		87.5519		679399		0		71		0
7207		12293		85527		87.7689		699260		0		70		0
7208		12273		87794		87.5366		704415		0		70		0
7209		12248		86187		87.6316		696830		0		71		0
7210		12231		86805		87.6615		703532		0		71		0
7211		12207		82888		87.6699		672240		0		69		0
7212		12197		85431		87.6468		691569		0		69		0
7213		12169		86976		87.7564		710377		0		69		0
7214		12173		84554		87.8575		696350		0		68		0
7215		12157		86573		87.7992		709570		0		68		0
7216.01		12149		84060		87.982		699448		0		70		0
7217		12139		82403		87.9162		681931		0		71		0
7218.01		12137		87118		87.883		718976		0		72		0
7219		12099		86246		87.9987		718638		0		68		0
7220.02		12115		84050		87.9771		699080		0		69		0
7221		12107		85912		88.0551		719236		0		67		0
7222.01		12108		86500		87.9916		720328		0		68		0
7223		12096		83371		88.0878		699880		0		69		0
7224		12096		84838		88.1467		715732		0		72		0
7225		12080		81853		87.9453		679012		0		70		0
7226		12068		83671		88.0433		699781		0		71		0
7227.01		12054		84966		88.0602		711619		0		71		0
7227.99		12056		83442		87.9347		691584		0		68		0
7229.01		12057		85193		88.0028		710106		0		68		0
7230.01		12061		87516		87.8261		718885		0		69		0
7231.02		12061		83867		87.8441		689926		0		70		0
7232		12062		83168		87.9995		693037		0		71		0
7233.01		12057		85786		87.7548		700567		0		69		0
7234		12053		82680		87.6852		671388		0		68		0
7235		12048		84260		87.7047		685301		0		69		0
7236		12031		83671		87.7608		683633		0		68		0
7237		12018		87194		87.5229		698833		0		69		0
7238		12011		86337		87.4117		685852		0		71		0
7239		12009		87088		87.2826		684792		0		70		0
7240		11973		89707		87.2714		704767		0		68		0
7241.01		11978		87921		87.1656		685043		0		68		0
7242		11967		86788		87.3364		685335		0		67		0
7243		11956		90723		87.0524		700691		0		70		0
7244		11937		90703		86.9716		696194		0		70		0
7245		11924		91195		86.8311		692505		0		70		0
7246		11903		90879		87.0046		699319		0		69		0
7247		11903		88363		86.9893		679157		0		68		0
7248		11897		89276		87.0041		686957		0		69		0
7249		11880		86758		86.9378		664189		0		70		0
