# XAS / LUCIA / SOLEIL : 
# Date : jeu. 27 mai 2021
#
# TARGET : GFL_08_01_CORE_pt2
# Total number of scan(s) : 1
# Scan N° : 1
# Coordinates : 
#               Horizontal : 4497.05
#               Vertical : -444.163
#               Depth : 13531.7
#               Rotation : 4.996
# ROI window : 
#               ROI_inf : 1295
#               ROI_sup : 1365
#
# Start of this scan : 05:18:25
# End of this scan : 05:37:08
#
# I0 current at start (µA) : 0
# USER COMMENTS : 
# 
# EXPERIMENTAL CONFIGURATION : 
# Undulator Harmonic : 21       Offset : nan
# Undulator Polarization : 0
# Low pass filter angle (°) : 0.319638         translation (µm) : -147
# Monochromator Crystal : 3: Si311
#
# SCAN : 
# Range		From(eV)	To(eV)		Step(eV)	Time(sec)
## 1		7070		7105		2		1.5
## 2		7105.1		7121		0.1		1.5
## 3		7121.5		7160		0.5		1.5
## 4		7161		7250		1		1.5
#
# Energy	Io		FY		DeadTime		FY_c		TEY		It		Ctr4
7069.99		20574		110		0.797525		110.884		0		119		0
7072		20398		98		0.718208		98.7089		0		118		0
7073.99		20306		97		0.759488		97.7423		0		119		0
7076		20221		106		1.12322		107.204		0		118		0
7078		20176		94		0.6864		94.6497		0		119		0
7080		20159		104		0.972715		105.022		0		117		0
7082		20167		116		0.766464		116.896		0		120		0
7084		20152		114		0.653909		114.75		0		116		0
7086		20143		79		0.725995		79.5777		0		119		0
7088		20090		89		0.814955		89.7313		0		120		0
7090		20044		86		1.01278		86.8799		0		119		0
7092		20000		110		0.731925		110.811		0		118		0
7094		19953		107		0.827755		107.893		0		120		0
7096		19905		115		0.711488		115.824		0		118		0
7098		19870		113		0.719701		113.819		0		119		0
7100		19867		122		0.813269		123		0		120		0
7102		19829		98		0.873344		98.8634		0		118		0
7104		19755		105		0.740203		105.783		0		117		0
7105.1		19704		125		0.860437		126.085		0		118		0
7105.2		19704		134		0.808256		135.092		0		119		0
7105.3		19706		148		0.629547		148.938		0		118		0
7105.41		19708		130		0.878613		131.152		0		121		0
7105.51		19712		113		0.798357		113.909		0		119		0
7105.61		19695		126		0.744789		126.945		0		116		0
7105.71		19692		120		0.747648		120.904		0		119		0
7105.8		19682		121		0.811243		121.99		0		116		0
7105.9		19679		133		0.725867		133.972		0		120		0
7106		19727		132		0.725504		132.965		0		120		0
7106.09		19706		123		0.750933		123.931		0		119		0
7106.19		19709		139		0.671893		139.94		0		120		0
7106.29		19710		125		0.794475		126.001		0		119		0
7106.4		19718		131		0.863339		132.141		0		121		0
7106.5		19691		112		0.707328		112.798		0		118		0
7106.6		19678		143		0.874645		144.262		0		120		0
7106.7		19680		131		0.623467		131.822		0		120		0
7106.8		19677		129		0.740864		129.963		0		119		0
7106.9		19675		135		0.800597		136.09		0		119		0
7107		19680		132		0.83904		133.117		0		122		0
7107.1		19673		129		0.919509		130.197		0		122		0
7107.2		19673		122		0.777835		122.956		0		121		0
7107.3		19666		133		0.631915		133.846		0		121		0
7107.41		19665		128		0.759083		128.979		0		121		0
7107.51		19655		159		0.747435		160.197		0		118		0
7107.61		19657		143		0.754795		144.088		0		120		0
7107.71		19653		161		0.742229		162.204		0		119		0
7107.8		19642		125		0.866389		126.092		0		118		0
7107.9		19659		133		0.746773		134.001		0		120		0
7107.99		19667		157		0.816661		158.293		0		121		0
7108.1		19645		127		0.844501		128.082		0		119		0
7108.19		19656		143		0.897984		144.296		0		118		0
7108.29		19655		135		0.948821		136.293		0		119		0
7108.4		19635		139		0.687893		139.963		0		119		0
7108.5		19643		150		0.795712		151.203		0		119		0
7108.6		19646		126		0.835136		127.061		0		119		0
7108.7		19629		159		0.728064		160.166		0		120		0
7108.8		19639		147		0.6688		147.99		0		120		0
7108.9		19634		141		0.821035		142.167		0		117		0
7109		19635		160		0.730752		161.178		0		120		0
7109.1		19629		139		0.743595		140.041		0		120		0
7109.2		19610		157		0.856939		158.357		0		118		0
7109.3		19597		187		0.750656		188.414		0		120		0
7109.41		19615		153		0.748587		154.154		0		120		0
7109.51		19607		177		0.896917		178.602		0		117		0
7109.61		19594		147		0.834752		148.237		0		120		0
7109.7		19571		169		0.819392		170.396		0		118		0
7109.8		19586		164		0.707051		165.168		0		119		0
7109.9		19579		176		0.822891		177.46		0		120		0
7109.99		19580		145		0.869141		146.271		0		118		0
7110.1		19566		160		0.882176		161.424		0		117		0
7110.19		19578		166		0.780715		167.306		0		119		0
7110.29		19577		163		0.858923		164.412		0		119		0
7110.4		19589		162		0.813589		163.329		0		120		0
7110.5		19591		178		0.724075		179.298		0		119		0
7110.6		19578		212		0.831189		213.777		0		119		0
7110.7		19576		216		0.692501		217.506		0		117		0
7110.8		19573		187		0.839125		188.582		0		118		0
7110.9		19569		226		0.830251		227.892		0		118		0
7111		19578		214		0.946304		216.044		0		117		0
7111.1		19577		210		0.849771		211.8		0		120		0
7111.2		19565		234		0.782165		235.845		0		118		0
7111.31		19583		249		0.726955		250.823		0		120		0
7111.41		19586		248		0.821397		250.054		0		117		0
7111.51		19578		272		0.865323		274.374		0		120		0
7111.61		19569		275		0.801003		277.221		0		119		0
7111.7		19568		283		0.741739		285.115		0		118		0
7111.8		19584		335		0.699349		337.359		0		119		0
7111.9		19583		309		0.820181		311.555		0		119		0
7111.99		19582		325		0.866155		327.84		0		116		0
7112.1		19573		343		0.951595		346.295		0		120		0
7112.19		19567		340		0.797376		342.733		0		119		0
7112.29		19573		351		0.932629		354.304		0		118		0
7112.4		19578		340		0.788779		342.703		0		120		0
7112.5		19570		386		0.879616		389.425		0		119		0
7112.6		19567		346		0.809301		348.823		0		117		0
7112.7		19577		330		0.827243		332.753		0		118		0
7112.8		19568		343		0.784981		345.714		0		120		0
7112.9		19570		343		0.771243		345.666		0		120		0
7113		19553		350		0.617259		352.174		0		120		0
7113.1		19549		315		0.763179		317.423		0		119		0
7113.2		19546		323		0.620992		325.018		0		118		0
7113.3		19550		320		0.935083		323.021		0		121		0
7113.41		19539		324		0.768853		326.51		0		121		0
7113.5		19550		354		0.811669		356.897		0		119		0
7113.61		19536		355		0.843328		358.019		0		119		0
7113.7		19551		347		0.708117		349.475		0		119		0
7113.8		19549		337		0.745131		339.53		0		118		0
7113.9		19542		368		0.828395		371.074		0		120		0
7113.99		19544		341		0.768747		343.642		0		119		0
7114.09		19539		342		0.777109		344.679		0		120		0
7114.19		19541		339		0.860267		341.942		0		119		0
7114.3		19543		346		0.770112		348.685		0		121		0
7114.4		19533		374		0.671381		376.528		0		118		0
7114.5		19545		327		0.739819		329.437		0		118		0
7114.6		19543		302		0.887595		304.705		0		117		0
7114.7		19544		310		0.772288		312.413		0		119		0
7114.8		19550		283		1.06965		286.06		0		120		0
7114.9		19561		313		0.787648		315.485		0		118		0
7115		19564		325		0.851157		327.79		0		117		0
7115.1		19570		311		0.924373		313.902		0		119		0
7115.2		19547		306		0.822848		308.539		0		117		0
7115.3		19555		309		0.873963		311.724		0		120		0
7115.41		19558		325		0.727851		327.383		0		118		0
7115.51		19566		362		0.83264		365.039		0		119		0
7115.61		19581		339		0.996181		342.411		0		118		0
7115.7		19568		375		0.832149		378.147		0		117		0
7115.8		19579		337		0.918656		340.125		0		120		0
7115.9		19583		378		0.795221		381.03		0		117		0
7115.99		19596		385		0.819712		388.182		0		116		0
7116.09		19612		369		0.878997		372.272		0		118		0
7116.19		19613		428		0.719552		431.102		0		118		0
7116.3		19623		387		0.859221		390.354		0		116		0
7116.4		19615		408		0.783083		411.22		0		120		0
7116.5		19614		475		0.813227		478.894		0		119		0
7116.6		19616		431		0.860928		434.743		0		118		0
7116.7		19610		495		0.753493		498.758		0		120		0
7116.8		19603		492		0.864704		496.291		0		118		0
7116.9		19598		523		0.833728		527.397		0		116		0
7117		19587		519		0.8048		523.211		0		118		0
7117.1		19605		531		0.693824		534.71		0		118		0
7117.2		19598		594		0.833109		598.99		0		116		0
7117.31		19611		586		0.855147		591.054		0		118		0
7117.41		19605		642		0.778901		647.04		0		118		0
7117.51		19606		680		0.751211		685.147		0		117		0
7117.61		19606		684		0.919765		690.35		0		116		0
7117.7		19604		698		0.9696		704.834		0		119		0
7117.8		19616		773		0.832		779.485		0		118		0
7117.9		19613		793		0.820672		799.562		0		115		0
7117.99		19604		878		0.972245		886.62		0		118		0
7118.1		19615		928		0.883072		936.268		0		117		0
7118.19		19610		938		0.935957		946.862		0		120		0
7118.29		19607		1008		0.943787		1017.6		0		119		0
7118.4		19615		1067		1.07938		1078.64		0		118		0
7118.5		19615		1060		0.931499		1069.97		0		120		0
7118.6		19609		1131		0.976747		1142.16		0		118		0
7118.7		19610		1214		0.880555		1224.78		0		118		0
7118.8		19609		1278		0.998955		1290.9		0		117		0
7118.9		19610		1333		1.02615		1346.82		0		117		0
7119		19616		1451		0.969771		1465.21		0		117		0
7119.1		19618		1480		1.05261		1495.74		0		118		0
7119.21		19621		1570		1.07601		1587.08		0		117		0
7119.31		19621		1610		0.961472		1625.63		0		118		0
7119.41		19600		1671		0.979968		1687.54		0		119		0
7119.51		19597		1702		1.02987		1719.71		0		119		0
7119.61		19590		1694		1.05222		1712.01		0		116		0
7119.7		19578		1774		0.955733		1791.12		0		118		0
7119.8		19584		1874		1.08742		1894.6		0		118		0
7119.9		19586		1939		1.03369		1959.25		0		119		0
7120		19586		2008		1.00702		2028.43		0		119		0
7120.09		19588		2037		1.19337		2061.6		0		119		0
7120.19		19596		1914		1.10475		1935.38		0		116		0
7120.3		19590		2101		1.08181		2123.98		0		119		0
7120.4		19588		2151		1.0743		2174.36		0		119		0
7120.5		19606		2242		1.08211		2266.53		0		118		0
7120.6		19599		2239		1.19479		2266.07		0		120		0
7120.7		19615		2233		1.01286		2255.85		0		122		0
7120.8		19632		2390		1.02511		2414.75		0		119		0
7120.9		19624		2371		1.19823		2399.75		0		120		0
7121.5		19610		2628		1.10863		2657.46		0		117		0
7121.99		19587		2794		1.16945		2827.06		0		119		0
7122.5		19564		2892		1.14914		2925.62		0		120		0
7123		19532		2961		1.23511		2998.03		0		118		0
7123.5		19532		3260		1.32337		3303.72		0		119		0
7124		19516		3460		1.25045		3503.81		0		119		0
7124.5		19527		3633		1.23539		3678.44		0		118		0
7125		19432		3680		1.31433		3729.01		0		122		0
7125.5		19281		3841		1.20966		3888.03		0		118		0
7126		19392		3899		1.31452		3950.94		0		122		0
7126.5		19351		4002		1.27475		4053.67		0		119		0
7127		19335		3992		1.1641		4039.02		0		120		0
7127.5		19310		4042		1.42434		4100.4		0		119		0
7127.99		19288		4029		1.16544		4076.51		0		121		0
7128.5		19274		4129		1.33764		4184.98		0		118		0
7129		19253		3991		1.4717		4050.61		0		120		0
7129.5		19245		4088		1.24117		4139.38		0		118		0
7129.99		19227		4002		1.38656		4058.27		0		117		0
7130.5		19208		3949		1.29175		4000.68		0		117		0
7130.99		19213		3779		1.37154		3831.55		0		120		0
7131.5		19207		3877		1.37389		3931.01		0		118		0
7131.99		19204		3870		1.28642		3920.43		0		117		0
7132.49		19189		3851		1.22722		3898.85		0		119		0
7133		19188		3770		1.31232		3820.13		0		117		0
7133.5		19192		3699		1.24117		3745.49		0		118		0
7133.99		19163		3737		1.36617		3788.76		0		119		0
7134.5		19147		3548		1.31712		3595.36		0		117		0
7134.99		19165		3570		1.41086		3621.09		0		118		0
7135.5		19168		3568		1.38381		3618.07		0		119		0
7135.99		19161		3568		1.33171		3616.16		0		119		0
7136.49		19157		3559		1.22065		3602.98		0		117		0
7136.99		19025		3445		1.29626		3490.24		0		119		0
7137.5		19003		3471		1.39703		3520.18		0		118		0
7138		19138		3483		1.27942		3528.14		0		118		0
7138.5		19140		3427		1.29461		3471.95		0		118		0
7139		19122		3431		1.29914		3476.16		0		120		0
7139.5		19159		3449		1.33015		3495.5		0		119		0
7139.99		19131		3402		1.16041		3441.94		0		119		0
7140.5		19139		3363		1.20006		3403.85		0		118		0
7140.99		19116		3342		1.16514		3381.4		0		119		0
7141.5		19138		3321		1.29312		3364.51		0		119		0
7141.99		19107		3351		1.2233		3392.5		0		116		0
7142.49		19113		3403		1.27767		3447.04		0		118		0
7142.99		19081		3394		1.45769		3444.21		0		119		0
7143.5		18956		3216		1.20738		3255.3		0		117		0
7143.99		18990		3211		1.10652		3246.93		0		116		0
7144.49		19058		3298		1.21783		3338.66		0		119		0
7144.99		19098		3386		1.24322		3428.63		0		116		0
7145.5		19107		3154		1.14739		3190.61		0		120		0
7146		19104		3185		1.16026		3222.39		0		117		0
7146.49		19084		3073		1.27607		3112.72		0		117		0
7146.99		19075		3106		1.0877		3140.16		0		119		0
7147.5		19070		3086		1.23501		3124.59		0		119		0
7147.99		19076		3072		1.19945		3109.29		0		118		0
7148.49		19047		3193		1.13137		3229.54		0		119		0
7149		19049		3038		1.15836		3073.6		0		116		0
7149.5		19040		3073		1.22355		3111.07		0		118		0
7149.99		19042		2985		1.0534		3016.78		0		120		0
7150.49		19028		2964		1.12346		2997.68		0		118		0
7151		19011		2944		1.34191		2984.04		0		121		0
7151.5		19016		2970		1.0653		3001.98		0		118		0
7151.99		19005		2938		1.31938		2977.28		0		120		0
7152.49		18982		2855		1.23834		2890.8		0		122		0
7152.99		18971		2975		1.4137		3017.66		0		120		0
7153.5		18984		2897		1.22741		2933		0		120		0
7154		18978		2990		1.17527		3025.56		0		118		0
7154.5		18983		2948		1.17687		2983.11		0		119		0
7154.99		18989		2929		1.17696		2963.88		0		120		0
7155.5		18986		2836		1.27921		2872.75		0		119		0
7156		18994		2991		1.29783		3030.33		0		118		0
7156.49		19010		2962		1.26944		3000.08		0		120		0
7156.99		18993		2966		1.1223		2999.67		0		118		0
7157.5		19042		2992		1.18694		3027.94		0		119		0
7157.99		18805		2886		1.20484		2921.2		0		122		0
7158.5		18932		2994		1.22419		3031.11		0		120		0
7158.99		18957		2997		1.00977		3027.57		0		122		0
7159.5		18958		2924		1.3789		2964.88		0		120		0
7159.99		18964		2989		1.24019		3026.53		0		120		0
7161.01		18938		3033		1.1754		3069.07		0		120		0
7162.01		18939		2976		1.20634		3012.34		0		118		0
7163		18945		3016		1.30714		3055.95		0		118		0
7164.01		18931		3013		1.41163		3056.14		0		119		0
7165		18900		3026		1.30726		3066.08		0		117		0
7166		18891		3108		1.15706		3144.38		0		119		0
7167		18868		3170		1.14039		3206.57		0		118		0
7168		18839		2980		1.26799		3018.27		0		117		0
7169.01		18866		3122		1.12642		3157.57		0		118		0
7170.02		18826		3319		1.16858		3358.24		0		118		0
7171.01		18840		3125		1.00324		3156.67		0		119		0
7172		18818		3231		1.21632		3270.78		0		118		0
7173		18815		3300		1.14697		3338.29		0		119		0
7174		18813		3205		1.29909		3247.18		0		118		0
7175		18804		3225		1.1607		3262.87		0		118		0
7176.01		18791		3258		1.28233		3300.32		0		117		0
7177		18805		3172		1.33239		3214.83		0		120		0
7178		18800		3177		1.16563		3214.47		0		118		0
7179		18815		3286		1.27729		3328.51		0		121		0
7180		18832		3362		1.23187		3403.93		0		121		0
7181		18823		3313		1.25037		3354.95		0		122		0
7182.01		18823		3252		1.26076		3293.52		0		120		0
7183		18810		3300		0.9968		3333.23		0		121		0
7184		18778		3316		1.19366		3356.06		0		122		0
7185		18770		3116		1.30927		3157.34		0		119		0
7186		18751		3224		1.26645		3265.35		0		120		0
7187		18743		3194		1.26752		3235		0		119		0
7188.01		18733		3259		1.18803		3298.18		0		118		0
7189		18713		3231		1.18733		3269.82		0		119		0
7190		18708		3131		1.22327		3169.78		0		120		0
7191		18670		3214		1.21357		3253.48		0		118		0
7192		18655		3204		1.15364		3241.39		0		121		0
7193		18621		3236		1.1466		3273.53		0		118		0
7194		18636		3285		1.35561		3330.14		0		116		0
7195		18620		3258		1.073		3293.34		0		116		0
7196		18613		3197		1.15546		3234.37		0		116		0
7197		18613		3160		1.41615		3205.39		0		117		0
7198		18605		3281		1.0855		3317.01		0		116		0
7199		18589		3296		1.17235		3335.1		0		117		0
7200		18597		3177		1.39676		3222		0		117		0
7201		18563		3092		1.23625		3130.7		0		119		0
7202		18562		3147		1.20704		3185.45		0		118		0
7203		18550		3077		1.21786		3114.94		0		119		0
7204		18526		3055		1.31157		3095.6		0		118		0
7205		18527		3149		1.13822		3185.26		0		120		0
7206		18516		3151		1.18022		3188.63		0		117		0
7207		18496		2981		1.24619		3018.62		0		117		0
7208		18496		3099		1.22074		3137.3		0		116		0
7209		18458		3166		1.34639		3209.21		0		119		0
7210		18428		3086		1.44105		3131.12		0		117		0
7211		18427		3166		1.15639		3203.04		0		119		0
7212		18408		3133		1.17574		3170.27		0		120		0
7213		18388		3134		1.32484		3176.08		0		117		0
7214		18386		3174		0.976256		3205.29		0		120		0
7215		18346		3036		1.19966		3072.86		0		117		0
7216		18341		2989		1.16252		3024.16		0		119		0
7217		18328		3113		1.26842		3152.99		0		117		0
7218		18306		3063		1.26771		3102.33		0		120		0
7219		18321		2994		1.21154		3030.72		0		116		0
7220.01		18313		3063		1.14835		3098.58		0		117		0
7221		18304		2998		1.23458		3035.48		0		116		0
7222.01		18304		2952		1.25579		2989.54		0		116		0
7223		18309		3051		1.19567		3087.92		0		119		0
7224		18272		3137		1.18423		3174.59		0		117		0
7225		18266		3044		1.14878		3079.38		0		119		0
7226		18238		3105		1.29794		3145.83		0		116		0
7227.01		18235		3103		1.16418		3139.55		0		116		0
7227.99		18254		3126		1.21865		3164.56		0		114		0
7229.01		18264		3001		1.22865		3038.33		0		117		0
7230		18266		2997		1.06912		3029.39		0		116		0
7231.02		18284		2966		1.27388		3004.27		0		119		0
7232		18283		3021		1.26108		3059.58		0		117		0
7233		18306		3064		1.33135		3105.34		0		117		0
7234		18290		3055		1.03132		3086.84		0		116		0
7235.01		18281		2980		1.2954		3019.11		0		119		0
7236		18265		3149		1.111		3184.38		0		118		0
7237		18256		3056		1.08892		3089.64		0		118		0
7238		18211		3099		1.06483		3132.35		0		116		0
7239		18202		3142		1.23405		3181.26		0		115		0
7240		18181		3115		1.13707		3150.83		0		117		0
7241.01		18159		2957		1.13353		2990.9		0		116		0
7242		18169		3051		1.17062		3087.14		0		120		0
7243		18130		2953		1.06121		2984.67		0		117		0
7244		18096		3090		1.22737		3128.4		0		120		0
7245		18080		3145		1.18022		3182.56		0		116		0
7246		18061		3088		1.31693		3129.21		0		118		0
7247		18048		3112		1.12725		3147.48		0		117		0
7248		18037		3026		1.10492		3059.81		0		117		0
7249		18021		3033		1.03153		3064.61		0		119		0
