# XAS / LUCIA / SOLEIL : 
# Date : jeu. 27 mai 2021
#
# TARGET : GFL_PL_780_11_07_test100prct2
# Total number of scan(s) : 10
# Scan N° : 9
# Coordinates : 
#               Horizontal : -10280.1
#               Vertical : -11510.7
#               Depth : 13840
#               Rotation : 4.996
# ROI window : 
#               ROI_inf : 1295
#               ROI_sup : 1365
#
# Start of this scan : 12:12:10
# End of this scan : 12:12:39
#
# I0 current at start (µA) : 0
# USER COMMENTS : 
# 
# EXPERIMENTAL CONFIGURATION : 
# Undulator Harmonic : 21       Offset : nan
# Undulator Polarization : 0
# Low pass filter angle (°) : 0.319447         translation (µm) : -147
# Monochromator Crystal : 3: Si311
#
# SCAN : 
# Range		From(eV)	To(eV)		Step(eV)	Time(sec)
## 1		7110		7117		1		1
#
# Energy	Io		FY		DeadTime		FY_c		TEY		It		Ctr4
7110		13272		6940		7.16163		7475.36		0		74		0
7110.99		13210		9311		7.43286		10058.6		0		76		0
7112		13160		17715		9.26918		19524.8		0		74		0
7113		13129		17741		9.17846		19533.9		0		75		0
7114		13094		18276		9.58339		20213.1		0		75		0
7115		13079		16308		9.19498		17959.4		0		75		0
7116		13066		19092		9.60058		21119.6		0		75		0
