# XAS / LUCIA / SOLEIL : 
# Date : mar. 25 mai 2021
#
# TARGET : Gillepsite
# Total number of scan(s) : 1
# Scan N° : 1
# Coordinates : 
#               Horizontal : -12741.6
#               Vertical : 4232.8
#               Depth : 14413.2
#               Rotation : 4.996
# ROI window : 
#               ROI_inf : 1295
#               ROI_sup : 1365
#
# Start of this scan : 18:49:14
# End of this scan : 18:55:44
#
# I0 current at start (µA) : 0
# USER COMMENTS : 
# 
# EXPERIMENTAL CONFIGURATION : 
# Undulator Harmonic : 21       Offset : nan
# Undulator Polarization : 0
# Low pass filter angle (°) : 0.319638         translation (µm) : -147.5
# Monochromator Crystal : 3: Si311
#
# SCAN : 
# Range		From(eV)	To(eV)		Step(eV)	Time(sec)
## 1		7100		7300		1		1
#
# Energy	Io		FY		DeadTime		FY_c		TEY		It		Ctr4
7100		13158		708		12.0791		805.269		171		0		0
7101		13394		726		11.9728		824.745		164		0		0
7102.01		13371		755		12.1548		859.467		161		0		0
7103		13326		837		12.0982		952.199		174		0		0
7104		13294		847		12.0244		962.767		151		0		0
7105		13263		889		11.9888		1010.1		160		0		0
7106.01		13234		994		12.1448		1131.41		162		0		0
7107		13211		1073		12.0558		1220.09		163		0		0
7108		13194		1225		11.9289		1390.92		159		0		0
7109		13161		1248		11.798		1414.93		167		0		0
7110		13152		1494		11.9148		1696.09		157		0		0
7111		13128		2025		12.331		2309.83		173		0		0
7112		13104		3456		12.4779		3948.72		160		0		0
7113		13080		3404		12.4744		3889.15		156		0		0
7114		13066		2905		12.375		3315.26		145		0		0
7115		13038		2699		12.2475		3075.7		156		0		0
7116		13033		3098		12.3109		3532.94		163		0		0
7117		13010		3933		12.5332		4496.56		155		0		0
7118		12993		6228		13.0755		7164.84		167		0		0
7119		12988		10178		13.8746		11817.7		156		0		0
7120		12978		15679		15.0918		18465.8		150		0		0
7121		12943		20350		16.1311		24264.1		158		0		0
7122.01		12919		24726		16.979		29782.8		162		0		0
7123		12898		33019		18.8799		40703.8		162		0		0
7124		12861		43247		21.2198		54895.8		167		0		0
7125		12875		57127		24.8019		75968.7		164		0		0
7126.01		12773		70434		28.5744		98611.7		165		0		0
7127		12734		81020		31.385		118079		177		0		0
7128.01		12703		87748		33.639		132228		170		0		0
7129		12671		92525		35.2753		142952		186		0		0
7130		12652		86977		33.3406		130480		199		0		0
7131		12633		78168		30.5757		112595		186		0		0
7132		12618		75929		30.0851		108602		190		0		0
7133		12607		75180		29.667		106891		181		0		0
7134.01		12606		71708		28.8236		100747		181		0		0
7135		12587		68754		27.9965		95487.1		176		0		0
7136.02		12581		69815		28.093		97090.6		173		0		0
7137		12533		72843		28.537		101931		178		0		0
7138.01		12550		76247		29.8231		108650		180		0		0
7139		12536		77344		30.3478		111043		184		0		0
7140.01		12550		75476		29.7681		107467		175		0		0
7141		12526		71294		28.5046		99718.3		172		0		0
7142.01		12532		67764		27.5301		93506.4		180		0		0
7143		12517		65412		26.7677		89321.3		182		0		0
7144.01		12399		64581		26.2965		87622.7		170		0		0
7145		12503		63902		26.5083		86951.3		179		0		0
7146.01		12516		64228		26.4088		87276.8		157		0		0
7147		12504		63719		26.3973		86571.5		176		0		0
7148.01		12516		62573		26.1593		84740.5		172		0		0
7149		12500		60614		25.823		81715.4		157		0		0
7150.01		12497		59353		24.9962		79133.3		165		0		0
7151		12492		57265		24.3358		75683.1		182		0		0
7152.01		12480		55229		24.0544		72721.8		168		0		0
7153		12460		53756		23.6795		70434.6		156		0		0
7154.01		12456		52237		23.1931		68010.8		162		0		0
7154.99		12455		50346		22.9529		65344.5		168		0		0
7156.01		12449		49792		22.7601		64464.1		174		0		0
7157		12468		49354		22.4534		63644.3		163		0		0
7158.01		12234		48186		22.0046		61780.6		161		0		0
7159		12412		49066		22.2519		63108.9		161		0		0
7160.01		12421		49790		22.5325		64272.1		162		0		0
7161		12417		49936		22.6491		64557.7		173		0		0
7162.01		12405		51285		22.9243		66538.5		163		0		0
7163		12402		52413		23.397		68421.6		168		0		0
7164.01		12383		53339		23.4377		69667.4		172		0		0
7165		12382		54011		23.7398		70824.6		186		0		0
7166		12366		55352		23.8674		72704.7		158		0		0
7167		12354		56118		23.908		73750.2		167		0		0
7168		12358		56639		24.3854		74904.9		175		0		0
7169		12333		56810		24.536		75281		166		0		0
7170.02		12306		57010		24.4066		75416.6		177		0		0
7171		12316		57742		24.4811		76460.4		178		0		0
7172.01		12309		58436		24.7114		77616		149		0		0
7173		12284		59483		24.9523		79260.2		168		0		0
7174.01		12290		60510		25.0279		80710.1		162		0		0
7175		12288		61547		25.6308		82758.8		161		0		0
7176.02		12262		62397		25.5294		83787.5		158		0		0
7177		12260		62964		25.7396		84788.1		165		0		0
7178		12258		62837		26.1284		85062.5		167		0		0
7179		12253		64238		25.8551		86638.4		159		0		0
7180.01		12248		63939		26.1543		86584.6		168		0		0
7181		12230		64039		26.1071		86664.6		166		0		0
7182.01		12226		63930		26.1564		86574.9		171		0		0
7183		12214		63470		25.8385		85583.4		155		0		0
7184.01		12194		63654		25.7133		85687		178		0		0
7185		12185		63514		25.7262		85513.4		169		0		0
7186		12173		63323		25.8188		85362.6		174		0		0
7187		12160		63040		26.1298		85338.9		175		0		0
7188		12162		63183		25.9588		85335		179		0		0
7189		12145		63359		25.8971		85501.4		164		0		0
7190.01		12137		63496		25.9289		85723		158		0		0
7191		12128		63545		25.8363		85682.1		163		0		0
7192.01		12104		63768		25.9312		86093		168		0		0
7193		12088		63700		26.151		86257.1		169		0		0
7194		12089		63280		25.8334		85321.5		168		0		0
7195		12073		62493		25.599		83994.8		181		0		0
7196		12054		62794		25.656		84464.1		170		0		0
7197		12056		62333		25.5868		83766		167		0		0
7198.01		12049		61762		25.3294		82712.7		164		0		0
7199		12052		61312		25.0195		81770.6		166		0		0
7200		12040		60959		25.1898		81484.9		168		0		0
7201		12028		60844		25.1277		81263.7		160		0		0
7202		12023		60456		24.7689		80360.4		156		0		0
7203		12007		59677		24.824		79383		148		0		0
7204		11986		59896		24.9424		79800.1		155		0		0
7205		11971		60566		24.7453		80481.3		157		0		0
7206		11966		59593		24.9281		79381.2		154		0		0
7207		11980		59842		24.7612		79536.1		150		0		0
7208		11985		59544		24.752		79130.3		163		0		0
7209		11965		59612		24.6084		79069.8		167		0		0
7210		11956		59323		24.6465		78726.3		155		0		0
7211		11939		59179		24.4983		78381.1		173		0		0
7212		11934		59551		24.4575		78831.1		155		0		0
7213		11913		58645		24.4642		77638.6		156		0		0
7214		11901		58979		24.5755		78196		172		0		0
7215		11898		58724		24.6283		77912.5		159		0		0
7216.01		11901		58737		24.4926		77789.7		179		0		0
7217		11874		58792		24.4523		77821.1		157		0		0
7218.01		11871		57827		24.1546		76243.2		162		0		0
7219		11859		58246		24.1365		76777.4		157		0		0
7220.01		11862		58346		24.1665		76939.6		169		0		0
7221		11852		57647		23.9065		75758.1		161		0		0
7222.01		11866		57405		23.833		75367.2		149		0		0
7222.99		11842		56908		23.9269		74807		166		0		0
7224		11824		56342		23.8121		73951.4		162		0		0
7225		11820		56970		23.6839		74650.1		165		0		0
7226		11808		56022		23.6009		73328.1		164		0		0
7227		11796		56115		23.4819		73335.6		154		0		0
7228		11791		55469		23.5238		72531.1		154		0		0
7229.01		11790		55943		23.3473		72982.4		167		0		0
7230		11790		55940		23.5237		73146.8		162		0		0
7231.02		11794		55721		23.3143		72661.5		163		0		0
7232		11793		55619		23.6351		72833.2		166		0		0
7233.01		11791		55840		23.4577		72953.2		154		0		0
7234		11790		55687		23.3532		72654		160		0		0
7235		11764		55685		23.5669		72854.5		155		0		0
7236		11767		56673		23.5205		74102.2		165		0		0
7237		11762		56140		23.5575		73440.9		150		0		0
7238		11741		56225		23.5002		73496.9		158		0		0
7239		11746		56334		23.5844		73720.6		166		0		0
7240		11726		56379		23.6814		73873.2		167		0		0
7241		11713		56849		23.6889		74496.3		149		0		0
7242		11714		56559		23.7815		74206.4		153		0		0
7243		11690		56783		23.4446		74172.5		155		0		0
7244		11678		56551		23.6735		74090.9		166		0		0
7245		11662		57175		23.4632		74702.6		164		0		0
7246		11641		56933		23.6374		74556.1		155		0		0
7247		11644		56905		23.6698		74551.1		167		0		0
