# XAS / LUCIA / SOLEIL : 
# Date : mer. 26 mai 2021
#
# TARGET : Hematite_pt1
# Total number of scan(s) : 1
# Scan N° : 1
# Coordinates : 
#               Horizontal : -5522.7
#               Vertical : -9325.3
#               Depth : 14031.3
#               Rotation : 4.996
# ROI window : 
#               ROI_inf : 1295
#               ROI_sup : 1365
#
# Start of this scan : 02:17:52
# End of this scan : 02:44:54
#
# I0 current at start (µA) : 0
# USER COMMENTS : 
# 
# EXPERIMENTAL CONFIGURATION : 
# Undulator Harmonic : 21       Offset : nan
# Undulator Polarization : 0
# Low pass filter angle (°) : 0.319734         translation (µm) : -147.5
# Monochromator Crystal : 3: Si311
#
# SCAN : 
# Range		From(eV)	To(eV)		Step(eV)	Time(sec)
## 1		7070		7105		2		1
## 2		7105.05		7121		0.05		1
## 3		7121.3		7160		0.3		1
## 4		7161		7250		1		1
#
# Energy	Io		FY		DeadTime		FY_c		TEY		It		Ctr4
7069.99		13464		5027		1.51526		5104.34		0		0		0
7072		13365		5349		1.85981		5450.37		0		0		0
7074		13302		5787		1.86618		5897.05		0		0		0
7076		13263		6137		1.81043		6250.15		0		0		0
7078		13253		6419		2.0217		6551.45		0		0		0
7080		13224		6947		2.05699		7092.9		0		0		0
7082		13232		7400		1.94138		7546.51		0		0		0
7084		13214		7913		2.32221		8101.12		0		0		0
7086		13212		8511		2.21018		8703.36		0		0		0
7088		13178		9193		2.49005		9427.76		0		0		0
7090		13148		9956		2.65482		10227.5		0		0		0
7092		13106		10771		2.98381		11102.3		0		0		0
7094		13080		11581		3.13018		11955.2		0		0		0
7096		13049		12795		3.08608		13202.4		0		0		0
7098		13035		13705		3.68234		14229		0		0		0
7100		13027		15290		3.84979		15902.2		0		0		0
7102		13015		17223		4.04445		17948.9		0		0		0
7104		12980		19315		4.85782		20301.2		5		0		0
7105.05		12946		20921		5.23363		22076.4		12		0		0
7105.1		12951		20920		4.91443		22001.2		34		0		0
7105.15		12948		20981		5.17011		22124.9		14		0		0
7105.2		12951		20737		5.08323		21847.6		13		0		0
7105.25		12956		20807		5.00189		21902.5		16		0		0
7105.3		12955		20962		5.13638		22097		2		0		0
7105.35		12942		21367		5.01907		22496.1		15		0		0
7105.4		12946		21384		5.27395		22574.6		12		0		0
7105.45		12930		21303		5.14675		22458.9		12		0		0
7105.51		12924		21453		5.1784		22624.6		13		0		0
7105.56		12924		21615		5.2944		22823.4		20		0		0
7105.6		12927		21640		5.09286		22801.2		21		0		0
7105.65		12930		21540		5.08877		22694.9		27		0		0
7105.71		12920		21621		5.13978		22792.5		21		0		0
7105.75		12921		21493		5.2529		22684.6		20		0		0
7105.8		12926		21768		5.12054		22942.8		26		0		0
7105.85		12922		21980		5.36346		23225.7		28		0		0
7105.9		12910		22072		5.3456		23318.5		24		0		0
7105.95		12909		22100		5.23059		23319.8		26		0		0
7106		12908		22043		5.21485		23255.8		21		0		0
7106.05		12891		22096		5.48326		23377.9		25		0		0
7106.09		12911		22144		5.37488		23401.8		22		0		0
7106.15		12899		22536		5.38832		23819.5		26		0		0
7106.2		12912		22530		5.2543		23779.4		26		0		0
7106.24		12909		22474		5.42957		23764.3		34		0		0
7106.3		12909		22790		5.60032		24142		20		0		0
7106.35		12905		22676		5.6009		24021.4		10		0		0
7106.4		12898		22785		5.70621		24163.8		21		0		0
7106.45		12880		22789		5.7329		24174.9		26		0		0
7106.5		12887		23027		5.49341		24365.5		22		0		0
7106.55		12888		22840		5.83722		24255.9		29		0		0
7106.6		12889		23139		5.64925		24524.4		26		0		0
7106.65		12892		23169		5.73754		24579.2		34		0		0
7106.7		12884		23160		5.65443		24548.1		28		0		0
7106.75		12880		23248		5.71261		24656.5		31		0		0
7106.8		12885		23547		5.6296		24951.7		28		0		0
7106.85		12883		23543		5.58624		24936		31		0		0
7106.9		12879		23706		5.70595		25140.5		33		0		0
7106.95		12879		23742		5.81875		25208.8		35		0		0
7107		12870		23680		5.87674		25158.5		40		0		0
7107.05		12876		23759		5.92986		25256.7		41		0		0
7107.1		12879		24250		5.83974		25754		45		0		0
7107.15		12873		24181		5.90205		25697.7		29		0		0
7107.2		12876		24183		5.90922		25701.8		1		0		0
7107.25		12885		24194		5.71683		25661		3		0		0
7107.3		12870		24352		6.01094		25909.4		32		0		0
7107.35		12872		24373		5.72582		25853.3		32		0		0
7107.4		12874		24723		5.89696		26272.3		8		0		0
7107.45		12855		24694		5.76147		26203.7		42		0		0
7107.5		12852		24693		6.20518		26326.6		49		0		0
7107.56		12867		24830		5.88522		26382.7		35		0		0
7107.6		12875		25206		6.03635		26825.3		27		0		0
7107.66		12867		25073		6.14656		26715.1		27		0		0
7107.7		12870		25103		6.17133		26754.1		18		0		0
7107.75		12868		25309		6.11526		26957.5		18		0		0
7107.8		12868		25489		6.14506		27157.9		8		0		0
7107.85		12862		25168		6.20266		26832.3		19		0		0
7107.9		12864		25360		6.25107		27051		11		0		0
7107.95		12853		25563		6.34214		27294		23		0		0
7108		12862		25597		6.15776		27276.6		22		0		0
7108.05		12862		25836		6.20522		27545.2		31		0		0
7108.09		12842		25938		6.29718		27681.1		16		0		0
7108.15		12838		26155		6.26317		27902.6		27		0		0
7108.19		12839		25924		6.45286		27712.2		23		0		0
7108.25		12837		26309		6.09229		28015.8		28		0		0
7108.3		12835		26482		6.35578		28279.4		30		0		0
7108.35		12828		26443		6.4609		28269.5		38		0		0
7108.4		12838		26755		6.48838		28611.4		25		0		0
7108.45		12818		26904		6.37427		28735.7		21		0		0
7108.5		12817		26966		6.33232		28789		26		0		0
7108.55		12807		26902		6.40746		28743.7		32		0		0
7108.6		12791		27131		6.43942		28998.3		39		0		0
7108.65		12800		27252		6.52253		29153.5		31		0		0
7108.7		12788		27142		6.42915		29006.9		43		0		0
7108.75		12788		27635		6.59638		29586.6		24		0		0
7108.8		12778		27703		6.61488		29665.3		22		0		0
7108.85		12778		27738		6.79382		29759.8		20		0		0
7108.9		12809		27696		6.82861		29725.9		20		0		0
7108.95		12800		28346		6.64621		30364.1		10		0		0
7109		12802		28194		6.76186		30238.7		39		0		0
7109.05		12796		28380		6.88531		30478.5		33		0		0
7109.1		12797		28617		6.8153		30710		22		0		0
7109.15		12794		28581		6.76899		30656.1		10		0		0
7109.2		12798		28850		7.1296		31064.8		10		0		0
7109.25		12807		29166		6.95786		31347.1		10		0		0
7109.3		12810		29149		6.80298		31276.7		6		0		0
7109.35		12805		29671		7.02179		31911.8		14		0		0
7109.41		12810		29371		6.96826		31570.9		12		0		0
7109.45		12808		29777		7.1503		32070.1		33		0		0
7109.5		12807		29889		7.08102		32166.7		4		0		0
7109.56		12797		29700		7.21997		32011.2		42		0		0
7109.6		12799		30054		7.18954		32382.1		23		0		0
7109.66		12808		30444		7.08906		32766.9		7		0		0
7109.7		12802		30569		7.28886		32972.3		50		0		0
7109.75		12797		30641		7.1169		32988.8		15		0		0
7109.8		12788		30644		7.36432		33080.1		29		0		0
7109.85		12797		30960		7.32285		33406.3		26		0		0
7109.9		12783		31188		7.332		33655.6		25		0		0
7109.95		12780		31179		7.44749		33687.9		23		0		0
7110		12789		31461		7.47456		34002.5		29		0		0
7110.04		12787		31247		7.3881		33739.7		44		0		0
7110.1		12782		31703		7.58771		34306		32		0		0
7110.15		12781		32209		7.62832		34868.9		34		0		0
7110.2		12771		32127		7.5304		34743.3		6		0		0
7110.24		12771		32573		7.67219		35279.7		23		0		0
7110.3		12778		32861		7.67981		35594.6		37		0		0
7110.35		12772		33123		7.99056		35999.6		20		0		0
7110.4		12774		33206		7.95373		36075.3		42		0		0
7110.45		12774		33565		7.99498		36481.7		25		0		0
7110.5		12772		33224		7.94893		36093		10		0		0
7110.55		12776		33874		7.97302		36808.8		51		0		0
7110.6		12778		34320		8.12342		37354.5		35		0		0
7110.65		12780		34521		8.09718		37562.5		23		0		0
7110.7		12768		34920		8.25936		38063.8		18		0		0
7110.75		12763		34988		8.28371		38148.1		28		0		0
7110.8		12744		35463		8.31338		38678.5		14		0		0
7110.85		12754		35361		8.3815		38595.9		1		0		0
7110.9		12750		35417		8.55469		38730.3		34		0		0
7110.95		12741		36001		8.47821		39336		23		0		0
7111		12758		36474		8.64797		39926.9		24		0		0
7111.05		12754		37205		8.68909		40745.4		2		0		0
7111.1		12749		37341		8.69635		40897.6		26		0		0
7111.15		12745		37513		8.96925		41209.2		12		0		0
7111.2		12761		38009		8.77955		41667.2		0		0		0
7111.25		12763		38159		9.21894		42034.1		42		0		0
7111.3		12760		38556		9.06211		42398.2		38		0		0
7111.35		12770		38843		9.39514		42870.8		33		0		0
7111.4		12770		39502		9.37664		43589.2		16		0		0
7111.46		12770		39956		9.35824		44081.2		28		0		0
7111.51		12782		40620		9.32774		44798.7		33		0		0
7111.55		12788		40875		9.77974		45305.8		22		0		0
7111.6		12782		41498		9.6727		45941.8		27		0		0
7111.66		12793		42069		9.91322		46698.3		17		0		0
7111.7		12784		42134		10.1104		46873		11		0		0
7111.75		12785		43014		10.1451		47870.5		12		0		0
7111.8		12788		43727		10.341		48770.4		18		0		0
7111.85		12779		44286		10.6331		49555.3		17		0		0
7111.9		12773		45036		10.5973		50374.3		30		0		0
7111.94		12772		45432		10.7242		50889.5		15		0		0
7112		12771		46494		11.0177		52250.9		19		0		0
7112.05		12757		47585		11.1326		53546.1		20		0		0
7112.09		12750		48371		11.6083		54723.4		23		0		0
7112.15		12756		49624		11.8286		56281.3		22		0		0
7112.2		12753		50864		11.9344		57756.9		11		0		0
7112.25		12765		51828		12.326		59114.4		17		0		0
7112.3		12758		53073		12.5034		60657.2		23		0		0
7112.35		12759		54586		12.9755		62724.9		75		0		0
7112.4		12752		55902		13.4147		64562.9		23		0		0
7112.45		12757		57546		13.8621		66806.8		23		0		0
7112.5		12747		59115		14.1742		68877.9		25		0		0
7112.55		12774		60959		14.6926		71458		18		0		0
7112.6		12771		62516		15.1069		73640.9		10		0		0
7112.65		12774		64967		15.3492		76747.1		11		0		0
7112.7		12787		66977		16.1536		79880.6		12		0		0
7112.75		12761		68946		16.7631		82831.1		22		0		0
7112.8		12755		71267		17.4073		86287.2		32		0		0
7112.85		12758		73608		17.8565		89609.1		33		0		0
7112.9		12756		75981		18.3986		93112.4		26		0		0
7112.95		12762		78223		19.1731		96778.4		41		0		0
7113		12744		80070		19.6018		99591.7		23		0		0
7113.05		12744		81493		20.043		101921		36		0		0
7113.1		12744		83058		20.3515		104281		29		0		0
7113.15		12746		84850		20.8455		107195		33		0		0
7113.2		12745		85701		21.2492		108825		34		0		0
7113.25		12739		86819		21.4208		110486		37		0		0
7113.3		12734		87148		21.3838		110852		37		0		0
7113.35		12750		86937		21.6024		110892		26		0		0
7113.41		12747		87028		21.4881		110847		21		0		0
7113.45		12751		87434		21.6024		111526		32		0		0
7113.5		12728		86869		21.2396		110295		31		0		0
7113.56		12744		86737		21.3044		110218		17		0		0
7113.6		12749		86874		21.4712		110627		21		0		0
7113.65		12759		85755		21.5875		109364		26		0		0
7113.7		12759		85795		21.2787		108986		13		0		0
7113.75		12759		85944		21.4583		109425		26		0		0
7113.8		12735		86684		21.2484		110073		30		0		0
7113.85		12747		85917		21.4462		109373		25		0		0
7113.9		12745		87456		21.4475		111334		21		0		0
7113.95		12740		87457		21.6931		111685		22		0		0
7114		12735		88987		22.0239		114121		29		0		0
7114.04		12735		90220		22.2125		115983		23		0		0
7114.1		12745		91795		22.7164		118777		16		0		0
7114.15		12751		92493		23.1978		120430		19		0		0
7114.2		12762		94172		23.6074		123274		23		0		0
7114.25		12756		95805		23.9656		126002		24		0		0
7114.3		12770		96928		24.3969		128206		31		0		0
7114.35		12775		98281		24.8694		130814		16		0		0
7114.4		12769		98924		25.1532		132169		18		0		0
7114.45		12771		99614		25.3871		133508		30		0		0
7114.5		12763		100826		25.3923		135142		32		0		0
7114.55		12763		100845		25.7914		135894		30		0		0
7114.6		12777		101344		25.8467		136668		34		0		0
7114.65		12777		101025		25.9436		136416		17		0		0
7114.7		12773		101673		25.7155		136870		30		0		0
7114.75		12764		101225		25.7273		136288		12		0		0
7114.8		12774		100008		25.5548		134338		3		0		0
7114.85		12766		99398		25.562		133531		24		0		0
7114.9		12759		99031		25.05		132129		24		0		0
7114.95		12762		98015		24.6846		130139		28		0		0
7115		12753		97175		24.3885		128519		27		0		0
7115.05		12755		96309		24.4233		127432		26		0		0
7115.1		12756		96269		24.1419		126907		24		0		0
7115.15		12774		95721		23.9559		125876		35		0		0
7115.2		12781		94474		23.8584		124077		25		0		0
7115.25		12777		94150		23.5814		123203		35		0		0
7115.3		12768		94198		23.7663		123565		42		0		0
7115.35		12751		93922		23.4769		122737		30		0		0
7115.4		12764		94010		23.5925		123038		38		0		0
7115.46		12759		94002		23.604		123046		31		0		0
7115.51		12755		93602		23.5501		122436		29		0		0
7115.55		12757		93721		23.6972		122828		33		0		0
7115.6		12757		94292		23.2439		122846		37		0		0
7115.65		12757		93502		23.4456		122138		25		0		0
7115.7		12751		93324		23.6708		122265		27		0		0
7115.75		12758		93900		23.5399		122809		30		0		0
7115.8		12756		93488		23.744		122598		22		0		0
7115.85		12739		93981		23.5961		123005		19		0		0
7115.9		12749		94048		23.5003		122939		17		0		0
7115.95		12752		93573		23.9264		123003		4		0		0
7116		12743		94578		23.5405		123697		43		0		0
7116.05		12739		94306		23.4449		123187		31		0		0
7116.1		12761		94505		23.4024		123378		45		0		0
7116.14		12756		94344		23.7109		123666		26		0		0
7116.2		12763		94881		23.7133		124374		36		0		0
7116.25		12745		94633		23.6369		123925		27		0		0
7116.3		12746		94558		23.7737		124049		28		0		0
7116.35		12754		94670		23.9908		124551		31		0		0
7116.4		12735		94682		23.9174		124446		22		0		0
7116.45		12750		95458		23.8637		125378		28		0		0
7116.5		12734		95200		24.0497		125345		44		0		0
7116.55		12735		95306		24.186		125710		18		0		0
7116.6		12747		95277		24.0297		125414		30		0		0
7116.65		12740		95799		24.2964		126545		24		0		0
7116.7		12742		96049		24.1403		126614		22		0		0
7116.75		12734		96699		24.5513		128165		44		0		0
7116.8		12738		96798		24.6539		128471		28		0		0
7116.85		12749		97963		24.6766		130056		35		0		0
7116.9		12753		97336		24.9922		129768		30		0		0
7116.95		12758		98545		25.0601		131499		34		0		0
7117		12754		99216		24.8821		132080		34		0		0
7117.05		12752		98544		25.0301		131445		28		0		0
7117.1		12758		98712		25.2003		131968		10		0		0
7117.15		12749		99406		25.4138		133277		36		0		0
7117.2		12754		100469		25.523		134899		23		0		0
7117.25		12753		100005		25.4107		134074		35		0		0
7117.3		12755		100173		25.7562		134924		34		0		0
7117.36		12756		100596		25.7213		135430		39		0		0
7117.4		12745		101128		25.6667		136047		38		0		0
7117.45		12743		100825		25.9345		136129		41		0		0
7117.51		12743		101318		25.6605		136291		34		0		0
7117.55		12752		101572		25.9237		137118		39		0		0
7117.6		12743		101332		26.0446		137018		41		0		0
7117.65		12751		101807		26.0127		137601		33		0		0
7117.7		12756		101438		26.2935		137624		47		0		0
7117.75		12753		102148		26.338		138671		35		0		0
7117.8		12762		101824		26.496		138529		34		0		0
7117.85		12758		101686		26.3949		138151		29		0		0
7117.89		12766		102454		26.2287		138881		33		0		0
7117.95		12751		102552		26.1687		138901		39		0		0
7117.99		12745		102661		26.2886		139274		28		0		0
7118.05		12739		102428		26.5273		139410		31		0		0
7118.09		12742		103469		26.4572		140692		40		0		0
7118.15		12742		103508		26.5848		140990		36		0		0
7118.2		12747		103847		26.6613		141599		35		0		0
7118.25		12758		104075		26.5188		141635		18		0		0
7118.3		12753		103918		27.009		142371		45		0		0
7118.35		12746		104236		26.9294		142651		41		0		0
7118.4		12751		104460		26.9673		143032		39		0		0
7118.45		12754		104553		27.1601		143538		37		0		0
7118.5		12752		105122		27.1202		144240		23		0		0
7118.55		12749		106085		27.1013		145524		37		0		0
7118.6		12755		106102		27.1707		145686		34		0		0
7118.65		12753		105657		27.37		145473		32		0		0
7118.7		12743		106367		27.3409		146392		27		0		0
7118.75		12738		106714		27.4908		147173		33		0		0
7118.8		12734		107081		27.8287		148371		30		0		0
7118.85		12720		107702		27.8569		149289		28		0		0
7118.9		12731		108421		28.0015		150588		42		0		0
7118.95		12742		109224		28.1267		151967		39		0		0
7119		12748		109132		28.5165		152667		23		0		0
7119.05		12748		109474		28.5374		153191		24		0		0
7119.1		12756		109743		28.7041		153926		14		0		0
7119.15		12747		110791		29.0581		156171		14		0		0
7119.2		12742		111187		29.0385		156686		32		0		0
7119.25		12731		111680		29.5797		158591		24		0		0
7119.3		12747		112709		29.519		159914		28		0		0
7119.35		12734		112431		29.5555		159602		27		0		0
7119.41		12737		113284		29.9492		161717		22		0		0
7119.45		12740		114128		30.0754		163216		18		0		0
7119.5		12727		115373		30.2808		165482		39		0		0
7119.55		12737		115305		30.5871		166115		31		0		0
7119.6		12731		115781		30.8102		167338		18		0		0
7119.65		12742		117177		30.9377		169669		23		0		0
7119.7		12740		117532		31.2211		170884		11		0		0
7119.75		12727		118442		31.7035		173423		33		0		0
7119.8		12719		119534		31.9372		175623		15		0		0
7119.85		12722		120215		32.1987		177305		19		0		0
7119.9		12708		121058		32.6242		179676		16		0		0
7119.94		12707		121433		32.9356		181069		21		0		0
7120		12724		122984		33.2858		184344		16		0		0
7120.05		12738		123591		33.6839		186367		24		0		0
7120.1		12722		124452		34.2028		189145		28		0		0
7120.15		12727		125983		34.4805		192283		19		0		0
7120.2		12734		126659		34.8931		194540		33		0		0
7120.25		12731		127573		35.3031		197186		11		0		0
7120.3		12718		128840		35.6858		200329		29		0		0
7120.35		12706		129549		36.0287		202511		26		0		0
7120.4		12690		130215		36.5997		205385		23		0		0
7120.45		12689		132154		36.9847		209717		26		0		0
7120.5		12686		133602		37.2861		213034		28		0		0
7120.55		12683		133832		37.7982		215158		29		0		0
7120.6		12681		135137		38.3551		219218		36		0		0
7120.65		12676		136968		38.764		223672		24		0		0
7120.7		12686		137670		39.1453		226227		25		0		0
7120.75		12681		138559		39.9451		230721		30		0		0
7120.8		12680		139463		40.3388		233758		28		0		0
7120.85		12698		139543		41.225		237419		30		0		0
7120.9		12713		141577		41.5145		242072		10		0		0
7120.95		12709		142304		42.1614		246037		30		0		0
7121.3		12699		149342		45.9702		276407		31		0		0
7121.61		12689		154550		49.7157		307352		28		0		0
7121.89		12672		157502		54.0658		342886		48		0		0
7122.2		12669		159217		58.9755		388102		43		0		0
7122.5		12672		159112		63.3233		433823		49		0		0
7122.79		12660		156597		67.219		477706		52		0		0
7123.1		12647		151747		70.8238		520106		47		0		0
7123.4		12637		147208		73.4584		554632		44		0		0
7123.7		12640		142872		75.5833		585140		40		0		0
7124		12632		137961		77.4278		611200		40		0		0
7124.3		12631		134710		78.678		631788		49		0		0
7124.6		12617		130672		79.834		647983		55		0		0
7124.89		12662		125349		81.1104		663588		57		0		0
7125.21		12321		127529		81.2326		679523		55		0		0
7125.5		12417		121463		82.6884		701628		60		0		0
7125.8		12547		114141		84.1219		718856		78		0		0
7126.1		12551		109200		85.163		735998		57		0		0
7126.4		12533		106789		85.9788		761623		64		0		0
7126.7		12528		102374		86.8212		776811		57		0		0
7126.99		12525		99245		87.4908		793379		72		0		0
7127.3		12513		91640		88.223		778130		52		0		0
7127.6		12501		91745		88.6324		807076		99		0		0
7127.9		12504		89280		89.2128		827645		95		0		0
7128.2		12479		86445		89.6501		835229		98		0		0
7128.5		12472		83871		90.0986		847064		83		0		0
7128.79		12456		77769		90.4276		812425		82		0		0
7129.1		12451		77481		90.7459		837257		78		0		0
7129.4		12445		75391		91.0306		840532		84		0		0
7129.7		12445		72477		91.1664		820473		97		0		0
7130		12426		72872		91.2593		833709		80		0		0
7130.3		12416		67403		91.3925		783074		87		0		0
7130.6		12407		73723		91.3435		851645		58		0		0
7130.89		12405		75041		91.3344		865964		101		0		0
7131.21		12412		74511		91.3686		863259		80		0		0
7131.51		12376		68755		91.3654		796274		89		0		0
7131.79		12370		73265		91.3228		844338		70		0		0
7132.1		12366		77704		91.2602		889081		80		0		0
7132.4		12372		71254		91.5027		838551		85		0		0
7132.69		12367		71701		91.5973		853310		91		0		0
7132.99		12384		68628		91.562		813322		93		0		0
7133.3		12391		71329		91.5499		844122		85		0		0
7133.6		12384		68349		91.5598		809801		87		0		0
7133.9		12381		75431		91.5009		887514		70		0		0
7134.2		12372		71528		91.4602		837583		86		0		0
7134.5		12370		73523		91.4597		860896		111		0		0
7134.79		12373		74900		91.3227		863167		84		0		0
