# XAS / LUCIA / SOLEIL : 
# Date : mer. 26 mai 2021
#
# TARGET : PyNa5R_pt3
# Total number of scan(s) : 1
# Scan N° : 1
# Coordinates : 
#               Horizontal : -9580.2
#               Vertical : -885.7
#               Depth : 14031.6
#               Rotation : 4.996
# ROI window : 
#               ROI_inf : 1295
#               ROI_sup : 1365
#
# Start of this scan : 08:50:05
# End of this scan : 09:14:03
#
# I0 current at start (µA) : 0
# USER COMMENTS : 
# 
# EXPERIMENTAL CONFIGURATION : 
# Undulator Harmonic : 21       Offset : nan
# Undulator Polarization : 0
# Low pass filter angle (°) : 0.319638         translation (µm) : -147
# Monochromator Crystal : 3: Si311
#
# SCAN : 
# Range		From(eV)	To(eV)		Step(eV)	Time(sec)
## 1		7070		7105		2		1
## 2		7105.05		7121		0.05		1
## 3		7121.3		7160		0.3		1
## 4		7161		7250		1		1
#
# Energy	Io		FY		DeadTime		FY_c		TEY		It		Ctr4
7069.99		13547		434		3.57997		450.114		0		0		0
7072		13446		459		3.4071		475.19		0		0		0
7073.99		13409		464		3.57875		481.222		0		0		0
7076		13370		491		3.47466		508.675		0		0		0
7078		13326		525		3.39792		543.467		0		0		0
7080		13325		538		3.44998		557.224		0		0		0
7082		13313		637		3.58173		660.663		0		0		0
7084		13284		660		3.69062		685.292		0		0		0
7086		13274		706		3.44816		731.213		0		0		0
7088		13247		744		3.50784		771.047		0		0		0
7090		13229		867		3.4935		898.385		0		0		0
7092		13191		878		3.45798		909.449		0		0		0
7094		13162		961		3.47578		995.605		0		0		0
7096		13134		1125		3.6		1167.01		0		0		0
7098		13101		1148		3.59757		1190.84		0		0		0
7100		13099		1296		3.51712		1343.24		0		0		0
7102		13085		1467		3.58848		1521.6		0		0		0
7104		13048		1665		3.76893		1730.21		0		0		0
7105.05		13015		1872		3.58246		1941.56		0		0		0
7105.1		13014		1857		3.67862		1927.92		0		0		0
7105.15		13016		1950		3.78442		2026.7		0		0		0
7105.2		13016		1814		3.74074		1884.49		0		0		0
7105.25		13008		1932		3.62608		2004.69		0		0		0
7105.3		13011		1909		3.61872		1980.68		0		0		0
7105.35		13005		1889		3.80448		1963.71		0		0		0
7105.4		13000		1928		3.69856		2002.05		0		0		0
7105.45		12993		1928		3.69245		2001.92		0		0		0
7105.5		12988		1961		3.74403		2037.28		0		0		0
7105.56		12991		1985		3.77395		2062.85		0		0		0
7105.61		12985		1949		3.66512		2023.15		0		0		0
7105.65		12978		1945		3.75603		2020.91		0		0		0
7105.7		12971		2041		3.91888		2124.25		0		0		0
7105.75		12965		2059		3.78013		2139.89		0		0		0
7105.8		12968		1963		3.65626		2037.5		0		0		0
7105.85		12962		1970		3.7225		2046.17		0		0		0
7105.9		12954		2023		3.48224		2095.99		0		0		0
7105.95		12950		2092		3.67862		2171.9		0		0		0
7106		12958		1957		3.49114		2027.79		0		0		0
7106.05		12949		2161		3.61379		2242.02		0		0		0
7106.1		12942		2028		3.76774		2107.4		0		0		0
7106.14		12942		2091		3.39491		2164.48		0		0		0
7106.2		12945		2098		3.5968		2176.28		0		0		0
7106.25		12931		2021		3.57491		2095.93		0		0		0
7106.3		12925		1998		3.59827		2072.58		0		0		0
7106.35		12935		2111		3.65597		2191.11		0		0		0
7106.4		12920		2166		3.72682		2249.85		0		0		0
7106.45		12916		2139		3.74755		2222.28		0		0		0
7106.5		12913		2251		3.61526		2335.43		0		0		0
7106.55		12912		2091		3.81082		2173.84		0		0		0
7106.6		12905		2184		3.77885		2269.77		0		0		0
7106.65		12914		2143		3.72733		2225.97		0		0		0
7106.7		12904		2140		3.82314		2225.07		0		0		0
7106.75		12897		2176		3.77414		2261.35		0		0		0
7106.8		12903		2218		3.62522		2301.43		0		0		0
7106.85		12913		2264		3.74077		2351.98		0		0		0
7106.9		12912		2182		3.68957		2265.59		0		0		0
7106.95		12901		2247		3.60675		2331.08		0		0		0
7107		12903		2210		3.82957		2298		0		0		0
7107.05		12893		2313		3.49856		2396.86		0		0		0
7107.1		12889		2213		3.80048		2300.43		0		0		0
7107.15		12883		2218		3.65405		2302.12		0		0		0
7107.2		12875		2322		3.84608		2414.88		0		0		0
7107.25		12881		2318		3.75485		2408.43		0		0		0
7107.3		12891		2344		3.7273		2434.75		0		0		0
7107.35		12900		2419		3.72019		2512.47		0		0		0
7107.4		12889		2342		3.7121		2432.29		0		0		0
7107.45		12890		2294		3.61635		2380.07		0		0		0
7107.5		12879		2442		3.73277		2536.69		0		0		0
7107.56		12877		2384		3.60077		2473.05		0		0		0
7107.6		12875		2342		3.78931		2434.24		0		0		0
7107.66		12867		2383		3.73725		2475.52		0		0		0
7107.7		12867		2330		3.86733		2423.73		0		0		0
7107.75		12866		2338		3.74374		2428.93		0		0		0
7107.8		12866		2500		3.59936		2593.34		0		0		0
7107.85		12862		2471		3.76144		2567.58		0		0		0
7107.9		12853		2455		3.95072		2555.98		0		0		0
7107.95		12861		2387		3.86499		2482.97		0		0		0
7108		12859		2496		3.69379		2591.73		0		0		0
7108.05		12863		2571		3.62499		2667.7		0		0		0
7108.09		12853		2548		3.63798		2644.2		0		0		0
7108.15		12856		2590		3.88518		2694.69		0		0		0
7108.2		12848		2597		3.79862		2699.55		0		0		0
7108.25		12849		2604		3.81984		2707.42		0		0		0
7108.3		12849		2601		3.86541		2705.58		0		0		0
7108.35		12854		2673		3.91856		2782.01		0		0		0
7108.4		12853		2621		3.73142		2722.59		0		0		0
7108.45		12857		2698		3.85411		2806.15		0		0		0
7108.5		12856		2669		3.67808		2770.92		0		0		0
7108.55		12857		2721		4.07811		2836.68		0		0		0
7108.6		12856		2680		3.79411		2785.69		0		0		0
7108.65		12850		2652		4.0479		2763.88		0		0		0
7108.7		12842		2667		3.79014		2772.07		0		0		0
7108.75		12848		2754		3.74253		2861.08		0		0		0
7108.8		12841		2720		3.65782		2823.27		0		0		0
7108.85		12846		2692		3.85606		2799.97		0		0		0
7108.9		12839		2718		3.87379		2827.53		0		0		0
7108.95		12834		2847		3.70266		2956.47		0		0		0
7109		12833		2838		3.9625		2955.1		0		0		0
7109.05		12831		2826		3.84454		2938.99		0		0		0
7109.1		12829		2836		4.05952		2956		0		0		0
7109.15		12829		2881		4.04442		3002.43		0		0		0
7109.2		12833		2876		3.80547		2989.78		0		0		0
7109.25		12821		3066		3.81405		3187.58		0		0		0
7109.3		12816		3029		3.8679		3150.87		0		0		0
7109.35		12808		3023		3.82499		3143.23		0		0		0
7109.4		12821		3020		3.97267		3144.94		0		0		0
7109.46		12825		3148		3.82608		3273.24		0		0		0
7109.5		12824		2976		3.81658		3094.09		0		0		0
7109.55		12815		3052		3.83997		3173.88		0		0		0
7109.6		12816		3094		3.95149		3221.29		0		0		0
7109.65		12798		3081		3.93078		3207.06		0		0		0
7109.7		12803		3199		3.82822		3326.34		0		0		0
7109.75		12799		3156		3.96042		3286.15		0		0		0
7109.8		12808		3256		3.83139		3385.72		0		0		0
7109.85		12793		3164		3.98675		3295.38		0		0		0
7109.9		12803		3317		3.81363		3448.51		0		0		0
7109.95		12796		3305		3.89568		3438.97		0		0		0
7110		12805		3268		4.048		3405.87		0		0		0
7110.04		12812		3448		4.12067		3596.19		0		0		0
7110.1		12800		3470		4.05824		3616.78		0		0		0
7110.15		12790		3536		3.98582		3682.79		0		0		0
7110.2		12797		3644		3.79533		3787.76		0		0		0
7110.25		12795		3561		3.74285		3699.47		0		0		0
7110.3		12791		3542		4.01334		3690.1		0		0		0
7110.35		12771		3718		4.03798		3874.45		0		0		0
7110.4		12781		3726		3.96349		3879.77		0		0		0
7110.45		12786		3750		3.87014		3900.97		0		0		0
7110.5		12788		3759		3.96387		3914.15		0		0		0
7110.55		12793		3859		4.02838		4020.98		0		0		0
7110.6		12796		3943		4.14438		4113.48		0		0		0
7110.65		12792		4063		4.0423		4234.16		0		0		0
7110.7		12798		3996		4.11174		4167.35		0		0		0
7110.75		12792		4146		4.08822		4322.72		0		0		0
7110.8		12793		4160		4.0327		4334.81		0		0		0
7110.85		12794		4288		4.08045		4470.41		0		0		0
7110.9		12794		4443		4.19059		4637.33		0		0		0
7110.95		12784		4495		4.20867		4692.49		0		0		0
7111		12782		4770		4.24502		4981.46		0		0		0
7111.05		12790		4681		4.28192		4890.4		0		0		0
7111.1		12788		4844		4.21843		5057.34		0		0		0
7111.15		12786		4895		4.14854		5106.86		0		0		0
7111.2		12795		5061		4.27622		5287.09		0		0		0
7111.25		12782		5217		4.43814		5459.29		0		0		0
7111.3		12785		5491		4.55302		5752.93		0		0		0
7111.35		12783		5540		4.33923		5791.3		0		0		0
7111.4		12780		5742		4.52992		6014.45		0		0		0
7111.45		12772		5911		4.34627		6179.58		0		0		0
7111.5		12771		6165		4.48787		6454.68		0		0		0
7111.55		12775		6461		4.46848		6763.21		0		0		0
7111.6		12762		6415		4.5968		6724.09		0		0		0
7111.66		12771		6652		4.60938		6973.43		0		0		0
7111.7		12771		6974		4.75488		7322.16		0		0		0
7111.75		12763		7242		4.53453		7585.99		0		0		0
7111.8		12769		7377		4.82685		7751.14		0		0		0
7111.85		12772		7513		4.8424		7895.32		0		0		0
7111.9		12771		7664		4.77507		8048.31		0		0		0
7111.95		12769		8139		4.87968		8556.53		0		0		0
7112		12763		8262		4.9729		8694.36		0		0		0
7112.05		12764		8407		4.93309		8843.25		0		0		0
7112.1		12755		8681		5.28835		9165.72		0		0		0
7112.14		12745		9025		4.9367		9493.67		0		0		0
7112.2		12747		9118		5.07837		9605.82		0		0		0
7112.25		12749		9039		5.13958		9528.74		0		0		0
7112.3		12758		9321		5.12979		9825		0		0		0
7112.35		12761		9543		5.36141		10083.6		0		0		0
7112.4		12763		9593		5.33856		10134		0		0		0
7112.45		12759		9646		5.3471		10190.9		0		0		0
7112.5		12760		9646		5.21165		10176.4		0		0		0
7112.55		12763		9670		5.23773		10204.5		0		0		0
7112.6		12760		9830		5.17933		10366.9		0		0		0
7112.65		12769		9816		5.16502		10350.6		0		0		0
7112.7		12758		9958		5.20973		10505.3		0		0		0
7112.75		12761		10044		5.42922		10620.6		0		0		0
7112.8		12748		10082		5.30707		10647		0		0		0
7112.85		12743		10100		5.52531		10690.7		0		0		0
7112.9		12746		10356		5.48544		10957		0		0		0
7112.95		12755		10566		5.47155		11177.6		0		0		0
7113		12750		10553		5.50691		11168		0		0		0
7113.05		12736		10746		5.51245		11372.9		0		0		0
7113.1		12753		10943		5.59837		11592		0		0		0
7113.15		12761		11098		5.78371		11779.3		0		0		0
7113.2		12765		11444		5.77206		12145		0		0		0
7113.25		12763		11631		5.62739		12324.6		0		0		0
7113.3		12766		11595		5.7271		12299.4		0		0		0
7113.35		12764		12309		5.9071		13081.8		0		0		0
7113.41		12766		12442		5.58726		13178.3		0		0		0
7113.45		12765		12566		5.9607		13362.5		0		0		0
7113.51		12760		12885		5.97677		13704.1		0		0		0
7113.55		12760		12967		6.05517		13802.8		0		0		0
7113.6		12759		13438		6.0673		14306		0		0		0
7113.65		12747		13498		6.29174		14404.3		0		0		0
7113.7		12752		14022		6.29904		14964.6		0		0		0
7113.75		12757		13717		6.27187		14634.9		0		0		0
7113.8		12740		14292		6.35158		15261.3		0		0		0
7113.85		12744		14599		6.16474		15558.1		0		0		0
7113.9		12741		14344		6.42554		15329		0		0		0
7113.95		12744		14643		6.52694		15665.5		0		0		0
7114		12740		14892		6.41926		15913.5		0		0		0
7114.04		12741		15102		6.48714		16149.6		0		0		0
7114.09		12748		15148		6.42179		16187.5		0		0		0
7114.15		12733		14939		6.48442		15974.9		0		0		0
7114.2		12720		15026		6.45389		16062.7		0		0		0
7114.25		12718		15129		6.52787		16185.6		0		0		0
7114.3		12716		14951		6.45398		15982.5		0		0		0
7114.35		12720		14795		6.23594		15779		0		0		0
7114.4		12723		14408		6.30221		15377.1		0		0		0
7114.45		12732		14252		6.33174		15215.4		0		0		0
7114.5		12727		14055		6.03014		14956.9		0		0		0
7114.55		12739		13622		6.06218		14501.1		0		0		0
7114.6		12731		13304		5.98182		14150.5		0		0		0
7114.65		12745		13195		5.91088		14023.9		0		0		0
7114.7		12747		12589		5.78698		13362.3		0		0		0
7114.75		12737		12366		5.73997		13119		0		0		0
7114.8		12738		12245		5.83424		13003.7		0		0		0
7114.85		12740		11662		5.69296		12366		0		0		0
7114.9		12739		11429		5.74259		12125.3		0		0		0
7114.95		12746		11291		5.41971		11938		0		0		0
7115		12741		10925		5.56224		11568.5		0		0		0
7115.05		12736		10929		5.67139		11586.1		0		0		0
7115.1		12744		10656		5.32986		11255.9		0		0		0
7115.15		12727		10473		5.61251		11095.8		0		0		0
7115.2		12722		10176		5.37264		10753.8		0		0		0
7115.25		12729		10104		5.32381		10672.2		0		0		0
7115.3		12723		10005		5.26029		10560.5		0		0		0
7115.35		12724		10036		5.24899		10592		0		0		0
7115.41		12733		9705		5.49274		10269.1		0		0		0
7115.46		12737		9717		5.53264		10286.1		0		0		0
7115.5		12736		9590		5.47664		10145.6		0		0		0
7115.55		12738		9417		5.24691		9938.46		0		0		0
7115.61		12731		9570		5.4144		10117.8		0		0		0
7115.65		12731		9354		5.11427		9858.17		0		0		0
7115.7		12722		9289		5.36989		9816.11		0		0		0
7115.75		12724		9376		5.16083		9886.21		0		0		0
7115.8		12720		9191		4.9609		9670.76		0		0		0
7115.85		12709		9509		5.23523		10034.3		0		0		0
7115.9		12723		9380		5.02995		9876.8		0		0		0
7115.94		12714		9432		5.21274		9950.7		0		0		0
7116		12732		9614		5.19552		10140.9		0		0		0
7116.05		12733		9701		5.39421		10254.1		0		0		0
7116.1		12736		9661		5.2887		10200.5		0		0		0
7116.15		12733		9777		5.12141		10304.7		0		0		0
7116.2		12737		9743		5.21808		10279.4		0		0		0
7116.25		12731		9924		5.19222		10467.5		0		0		0
7116.3		12723		10180		5.40435		10761.6		0		0		0
7116.35		12735		10325		5.44394		10919.4		0		0		0
7116.4		12729		10392		5.60758		11009.4		0		0		0
7116.45		12749		10721		5.37702		11330.2		0		0		0
7116.5		12745		10844		5.5207		11477.6		0		0		0
7116.55		12747		11043		5.57642		11695.2		0		0		0
7116.6		12752		11151		5.49526		11799.4		0		0		0
7116.65		12742		11343		5.6152		12017.8		0		0		0
7116.7		12736		11589		5.67472		12286.2		0		0		0
7116.75		12746		11767		5.88813		12503.2		0		0		0
7116.8		12740		11982		5.80205		12720		0		0		0
7116.85		12737		12228		5.83722		12986		0		0		0
7116.9		12739		12601		5.90442		13391.7		0		0		0
7116.95		12738		12765		5.9327		13570.1		0		0		0
7117		12726		13212		6.26118		14094.5		0		0		0
7117.05		12715		13317		6.15136		14189.9		0		0		0
7117.1		12727		13867		6.324		14803.2		0		0		0
7117.15		12724		14185		6.27955		15135.4		0		0		0
7117.2		12731		14385		6.4031		15369.1		0		0		0
7117.25		12718		14826		6.42118		15843.3		0		0		0
7117.3		12745		15163		6.39184		16198.4		0		0		0
7117.36		12735		15520		6.51293		16601.2		0		0		0
7117.4		12725		15993		6.58634		17120.6		0		0		0
7117.45		12735		16379		6.66045		17547.8		0		0		0
7117.51		12734		16619		6.92125		17854.8		0		0		0
7117.55		12736		16995		6.7488		18225		0		0		0
7117.61		12732		17526		6.96717		18838.5		0		0		0
7117.65		12732		17853		6.93498		19183.4		0		0		0
7117.7		12725		18272		7.16646		19682.5		0		0		0
7117.75		12732		18745		7.3248		20226.6		0		0		0
7117.8		12731		19318		7.37434		20856		0		0		0
7117.85		12725		19912		7.49318		21524.9		0		0		0
7117.9		12714		20442		7.67482		22141.3		0		0		0
7117.94		12720		21094		7.86179		22893.9		0		0		0
7118		12719		21466		7.95549		23321.3		0		0		0
7118.05		12724		22441		8.17158		24438		0		0		0
7118.09		12718		23041		8.2561		25114.5		0		0		0
7118.15		12725		23654		8.55149		25865.9		0		0		0
7118.2		12718		24315		8.4423		26557		0		0		0
7118.25		12717		25135		8.9087		27593.2		0		0		0
7118.3		12720		25924		9.00214		28488.6		0		0		0
7118.35		12714		26760		9.01168		29410.4		0		0		0
7118.4		12724		27535		9.22438		30333		0		0		0
7118.45		12724		28642		9.42736		31623.2		0		0		0
7118.5		12722		29111		9.62512		32211.4		0		0		0
7118.55		12719		29985		9.86992		33268.6		0		0		0
7118.6		12719		30785		9.91178		34172.1		0		0		0
7118.65		12714		31482		10.0876		35014.1		0		0		0
7118.7		12721		32250		10.2996		35953		0		0		0
7118.75		12720		33179		10.5979		37112.1		0		0		0
7118.8		12718		33952		10.6327		37991.5		0		0		0
7118.85		12717		34707		10.8413		38927.2		0		0		0
7118.9		12717		36133		11.1086		40648.5		0		0		0
7118.95		12710		36472		11.053		41004.2		0		0		0
7119		12712		36930		11.4063		41684.7		0		0		0
7119.05		12716		38017		11.7099		43059.2		0		0		0
7119.1		12713		38433		11.8986		43623.6		0		0		0
7119.15		12714		39541		12.038		44952.4		0		0		0
7119.2		12717		39924		12.3523		45550.5		0		0		0
7119.25		12715		40812		12.1748		46469.6		0		0		0
7119.31		12707		41269		12.5203		47175.5		0		0		0
7119.35		12716		42196		12.9021		48446.6		0		0		0
7119.41		12705		42596		12.7614		48827		0		0		0
7119.45		12700		43032		12.8693		49387.9		0		0		0
7119.5		12715		43814		12.8614		50280.8		0		0		0
7119.55		12725		44355		13.2163		51109.8		0		0		0
7119.6		12706		45099		13.4586		52112.6		0		0		0
7119.65		12708		45804		13.7124		53083		0		0		0
7119.7		12710		46447		13.5422		53722.1		0		0		0
7119.75		12712		46794		13.7006		54222.8		0		0		0
7119.8		12731		48001		13.8604		55724.7		0		0		0
7119.85		12740		47775		14.0862		55608		0		0		0
7119.9		12739		48615		14.2553		56697.4		0		0		0
7119.94		12726		49497		14.2431		57717.8		0		0		0
7120		12734		49890		14.5809		58406.2		0		0		0
7120.04		12726		50232		14.6194		58833.1		0		0		0
7120.1		12731		51040		14.8		59906.1		0		0		0
7120.15		12732		50865		15.0164		59852.7		0		0		0
7120.2		12727		52443		15.0576		61739.5		0		0		0
7120.25		12719		52833		15.1902		62295.9		0		0		0
7120.3		12726		53039		15.3698		62671.5		0		0		0
7120.35		12725		53563		15.3454		63272.4		0		0		0
7120.4		12721		54237		15.4822		64172.3		0		0		0
7120.45		12724		54761		15.8067		65042		0		0		0
7120.5		12716		55209		15.7905		65561.5		0		0		0
7120.55		12712		55299		15.8705		65730.8		0		0		0
7120.6		12709		55774		15.8756		66299.4		0		0		0
7120.65		12716		56743		16.1595		67679.7		0		0		0
7120.7		12719		56911		16.257		67959.1		0		0		0
7120.75		12708		57246		16.3375		68424.9		0		0		0
7120.8		12715		58014		16.5886		69551.7		0		0		0
7120.85		12714		58601		16.4865		70169.5		0		0		0
7120.9		12707		58967		16.836		70904.5		0		0		0
7120.95		12711		59382		16.7959		71369.1		0		0		0
7121.3		12697		62321		17.5461		75582.8		0		0		0
7121.61		12701		65078		18.2084		79565.6		0		0		0
7121.89		12698		67562		19.087		83499.6		0		0		0
7122.2		12682		71017		19.9619		88728.9		0		0		0
7122.5		12678		73900		20.8334		93347.5		0		0		0
7122.79		12671		77012		21.6802		98330.2		0		0		0
7123.1		12662		80506		22.635		104060		0		0		0
7123.4		12657		83468		23.5943		109243		0		0		0
7123.7		12649		87121		24.2469		115007		0		0		0
7124		12630		89820		25.3133		120262		0		0		0
7124.3		12629		93023		26.1118		125897		0		0		0
7124.6		12639		95281		26.9778		130482		0		0		0
7124.89		12670		98120		28.0926		136453		0		0		0
7125.21		12284		98824		27.6123		136520		0		0		0
7125.5		12461		101009		28.9125		142091		0		0		0
7125.8		12524		103642		29.4638		146935		0		0		0
7126.1		12538		105817		30.4243		152089		0		0		0
7126.4		12529		107611		30.6009		155061		0		0		0
7126.7		12531		108278		31.4038		157848		0		0		0
7126.99		12520		110373		31.5827		161323		0		0		0
7127.31		12511		111109		32.3545		164252		0		0		0
7127.6		12504		113223		32.6624		168142		0		0		0
7127.9		12487		112865		33.1035		168716		0		0		0
7128.2		12482		114742		33.3603		172183		0		0		0
7128.5		12468		115655		33.8826		174924		0		0		0
7128.79		12471		116139		34.1171		176281		0		0		0
7129.1		12455		116857		34.136		177422		0		0		0
7129.4		12442		117029		34.657		179100		0		0		0
7129.7		12447		118551		34.69		181520		0		0		0
7130		12431		117986		34.9304		181323		0		0		0
7130.3		12419		118384		34.8269		181646		0		0		0
7130.6		12402		118535		35.0605		182532		0		0		0
7130.89		12401		118392		35.0917		182399		0		0		0
7131.21		12395		118590		35.1031		182736		0		0		0
7131.51		12379		118326		34.7418		181320		0		0		0
7131.79		12391		118180		34.9377		181641		0		0		0
7132.1		12373		118343		34.8053		181523		0		0		0
7132.4		12376		117743		34.5459		179886		0		0		0
7132.69		12386		117167		34.6292		179235		0		0		0
7132.99		12394		117387		34.6352		179587		0		0		0
7133.3		12396		117011		34.5738		178844		0		0		0
7133.6		12397		117240		34.5195		179046		0		0		0
7133.9		12405		116684		34.461		178038		0		0		0
7134.2		12387		116721		34.0983		177114		0		0		0
7134.5		12387		116765		34.1851		177414		0		0		0
7134.79		12379		115917		34.2421		176279		0		0		0
7135.1		12379		116658		34.0306		176837		0		0		0
7135.4		12395		115802		34.3344		176351		0		0		0
7135.7		12390		116205		34.2698		176791		0		0		0
7136		12383		115961		33.9636		175602		0		0		0
7136.29		12373		116203		34.2619		176767		0		0		0
7136.6		12366		115753		33.8624		175019		0		0		0
7136.89		12340		115316		33.9497		174588		0		0		0
7137.22		12174		114775		33.3173		172121		0		0		0
7137.5		12209		114574		33.4044		172044		0		0		0
7137.8		12334		115245		33.5252		173367		0		0		0
