# XAS / LUCIA / SOLEIL : 
# Date : mar. 25 mai 2021
#
# TARGET : Staurolite_pt2
# Total number of scan(s) : 1
# Scan N° : 1
# Coordinates : 
#               Horizontal : -10199.5
#               Vertical : 5857.9
#               Depth : 14413.4
#               Rotation : 4.996
# ROI window : 
#               ROI_inf : 1295
#               ROI_sup : 1365
#
# Start of this scan : 20:47:24
# End of this scan : 21:10:51
#
# I0 current at start (µA) : 0
# USER COMMENTS : 
# 
# EXPERIMENTAL CONFIGURATION : 
# Undulator Harmonic : 21       Offset : nan
# Undulator Polarization : 0
# Low pass filter angle (°) : 0.319638         translation (µm) : -147.5
# Monochromator Crystal : 3: Si311
#
# SCAN : 
# Range		From(eV)	To(eV)		Step(eV)	Time(sec)
## 1		7070		7105		2		1
## 2		7105.05		7121		0.05		1
## 3		7121.3		7160		0.3		1
## 4		7161		7250		1		1
#
# Energy	Io		FY		DeadTime		FY_c		TEY		It		Ctr4
7069.99		13473		1497		1.70394		1522.95		22		0		0
7072		13380		1470		1.6769		1495.07		55		0		0
7073.99		13318		1552		1.57254		1576.8		40		0		0
7076		13286		1521		1.66192		1546.7		56		0		0
7078		13268		1618		1.69338		1645.87		43		0		0
7080		13256		1780		1.83584		1813.29		45		0		0
7082		13249		1743		1.99011		1778.39		44		0		0
7084		13240		1790		1.8225		1823.23		44		0		0
7086		13228		2016		1.72534		2051.39		42		0		0
7088		13180		2069		1.84259		2107.84		33		0		0
7090		13161		2176		1.9119		2218.41		40		0		0
7092		13124		2375		1.7271		2416.74		38		0		0
7094		13114		2383		1.92429		2429.76		38		0		0
7096		13074		2726		1.94515		2780.08		27		0		0
7098		13047		2847		1.99242		2904.88		58		0		0
7100		13043		3133		1.87635		3192.91		39		0		0
7102		13027		3557		1.97174		3628.55		42		0		0
7104		13002		4085		2.08192		4171.85		51		0		0
7105.05		12978		4365		2.2064		4463.48		38		0		0
7105.1		12977		4308		2.23254		4406.37		63		0		0
7105.15		12973		4418		2.26771		4520.51		41		0		0
7105.2		12969		4478		2.3791		4587.13		56		0		0
7105.25		12973		4398		2.1432		4494.32		49		0		0
7105.3		12966		4448		2.1833		4547.28		41		0		0
7105.35		12967		4462		2.3864		4571.08		46		0		0
7105.4		12948		4457		2.34422		4563.99		45		0		0
7105.45		12950		4455		2.17347		4553.98		60		0		0
7105.51		12961		4509		2.31168		4615.7		30		0		0
7105.56		12953		4516		2.20275		4617.72		71		0		0
7105.6		12946		4489		2.31635		4595.45		69		0		0
7105.65		12950		4653		2.2584		4760.51		25		0		0
7105.71		12949		4420		2.4472		4530.88		45		0		0
7105.75		12942		4477		2.35379		4584.92		61		0		0
7105.8		12939		4549		2.3337		4657.7		61		0		0
7105.85		12938		4712		2.45923		4830.8		40		0		0
7105.9		12934		4692		2.34886		4804.86		38		0		0
7105.95		12946		4583		2.08861		4680.76		44		0		0
7106		12941		4706		2.28746		4816.17		35		0		0
7106.05		12943		4665		2.40934		4780.17		19		0		0
7106.09		12933		4543		2.24125		4647.15		57		0		0
7106.15		12926		4710		2.22963		4817.41		47		0		0
7106.2		12926		4648		2.27872		4756.38		58		0		0
7106.24		12931		4767		2.34429		4881.43		35		0		0
7106.3		12930		4765		2.21302		4872.84		51		0		0
7106.35		12926		4883		2.51437		5008.94		67		0		0
7106.4		12935		4787		2.29952		4899.67		23		0		0
7106.45		12936		4758		2.4425		4877.12		40		0		0
7106.5		12952		4869		2.32304		4984.8		46		0		0
7106.55		12945		4842		2.44608		4963.41		48		0		0
7106.6		12950		4874		2.36163		4991.89		60		0		0
7106.65		12946		4946		2.38938		5067.07		47		0		0
7106.7		12940		5065		2.37322		5188.13		49		0		0
7106.75		12931		4991		2.26506		5106.67		62		0		0
7106.8		12937		4981		2.2375		5095		59		0		0
7106.85		12935		4966		2.29664		5082.73		49		0		0
7106.9		12931		5137		2.3761		5262.03		53		0		0
7106.95		12934		5114		2.56563		5248.66		61		0		0
7107		12929		5122		2.44051		5250.13		57		0		0
7107.05		12923		5139		2.39302		5264.99		52		0		0
7107.1		12914		5162		2.35318		5286.4		36		0		0
7107.15		12918		5039		2.4697		5166.6		48		0		0
7107.2		12921		5201		2.30502		5323.71		51		0		0
7107.25		12920		5115		2.2727		5233.95		49		0		0
7107.3		12918		5295		2.30458		5419.91		53		0		0
7107.35		12922		5238		2.35862		5364.53		53		0		0
7107.4		12920		5192		2.39184		5319.23		49		0		0
7107.45		12917		5324		2.49354		5460.15		41		0		0
7107.5		12917		5320		2.48442		5455.54		50		0		0
7107.56		12916		5483		2.4831		5622.62		53		0		0
7107.6		12916		5467		2.47517		5605.75		38		0		0
7107.65		12910		5393		2.33792		5522.1		58		0		0
7107.7		12903		5425		2.39664		5558.21		60		0		0
7107.75		12905		5503		2.43978		5640.62		46		0		0
7107.8		12903		5584		2.5825		5732.03		49		0		0
7107.85		12897		5546		2.42723		5683.96		52		0		0
7107.9		12899		5563		2.53533		5707.71		54		0		0
7107.95		12888		5543		2.5912		5690.45		57		0		0
7108		12889		5711		2.42694		5853.05		41		0		0
7108.05		12888		5575		2.4407		5714.47		53		0		0
7108.09		12887		5797		2.88256		5969.06		30		0		0
7108.15		12885		5781		2.42394		5924.61		52		0		0
7108.19		12883		5714		2.4969		5860.33		40		0		0
7108.25		12873		5759		2.60288		5912.91		45		0		0
7108.3		12854		5645		2.50566		5790.08		64		0		0
7108.35		12867		5805		2.64106		5962.47		46		0		0
7108.4		12880		5944		2.49846		6096.31		59		0		0
7108.45		12895		5907		2.62733		6066.38		52		0		0
7108.5		12877		6100		2.57837		6261.44		40		0		0
7108.55		12871		5944		2.59018		6102.05		42		0		0
7108.6		12879		6097		2.55296		6256.73		54		0		0
7108.65		12877		6375		2.5991		6545.11		49		0		0
7108.7		12872		6147		2.72176		6318.99		53		0		0
7108.75		12873		6204		2.50717		6363.54		53		0		0
7108.8		12863		6108		2.68458		6276.5		40		0		0
7108.85		12861		6261		2.71542		6435.76		54		0		0
7108.9		12864		6373		2.7984		6556.48		46		0		0
7108.95		12856		6502		2.53843		6671.35		62		0		0
7109		12866		6457		2.81616		6644.11		65		0		0
7109.05		12869		6473		2.83786		6662.06		55		0		0
7109.1		12857		6582		2.91152		6779.38		58		0		0
7109.15		12855		6594		2.56323		6767.47		50		0		0
7109.2		12852		6810		2.59994		6991.78		39		0		0
7109.25		12859		6874		2.82966		7074.18		53		0		0
7109.3		12864		6831		2.68758		7019.66		55		0		0
7109.35		12863		6899		2.7207		7091.95		57		0		0
7109.41		12878		6929		2.9841		7142.13		45		0		0
7109.46		12873		7053		2.72269		7250.41		46		0		0
7109.5		12865		7118		2.76803		7320.64		52		0		0
7109.56		12878		7184		2.8479		7394.59		50		0		0
7109.6		12869		7145		2.94826		7362.05		60		0		0
7109.65		12867		7182		2.83037		7391.2		53		0		0
7109.7		12861		7207		3.03283		7432.41		55		0		0
7109.75		12850		7333		2.95453		7556.25		67		0		0
7109.8		12841		7526		2.97789		7756.99		57		0		0
7109.85		12845		7544		2.82144		7763.03		58		0		0
7109.9		12831		7587		2.94966		7817.59		46		0		0
7109.95		12824		7940		3.14413		8197.75		59		0		0
7110		12839		7859		3.01306		8103.15		47		0		0
7110.05		12844		7943		3.12883		8199.55		43		0		0
7110.09		12846		8252		3.0905		8515.16		41		0		0
7110.15		12839		8511		3.09318		8782.66		43		0		0
7110.2		12830		8396		3.15155		8669.21		35		0		0
7110.25		12828		8632		3.0111		8899.99		46		0		0
7110.3		12817		8800		3.30406		9100.69		53		0		0
7110.35		12819		9040		3.19162		9338.03		39		0		0
7110.4		12817		9320		3.34006		9642.05		78		0		0
7110.45		12807		9398		3.35485		9724.23		36		0		0
7110.5		12811		9478		3.38074		9809.64		36		0		0
7110.55		12804		9592		3.48192		9938.03		51		0		0
7110.6		12808		9904		3.38224		10250.7		43		0		0
7110.65		12805		10083		3.48918		10447.5		54		0		0
7110.7		12802		10356		3.41472		10722.1		46		0		0
7110.75		12798		10682		3.68547		11090.7		47		0		0
7110.8		12792		11051		3.73776		11480.1		46		0		0
7110.85		12798		11306		3.57744		11725.5		43		0		0
7110.9		12814		11593		3.96618		12071.8		47		0		0
7110.95		12812		12026		3.68826		12486.5		58		0		0
7111		12806		12421		4.03475		12943.2		50		0		0
7111.05		12798		12656		4.03715		13188.4		54		0		0
7111.1		12809		13278		4.06186		13840.2		46		0		0
7111.15		12799		13769		4.40637		14403.7		57		0		0
7111.2		12794		14367		4.3889		15026.5		52		0		0
7111.25		12792		14948		4.32227		15623.3		49		0		0
7111.3		12800		15567		4.63802		16324.1		37		0		0
7111.35		12800		16268		4.8535		17097.8		47		0		0
7111.4		12807		17119		4.99402		18018.9		49		0		0
7111.45		12805		17840		4.95226		18769.5		50		0		0
7111.51		12805		18671		5.24042		19703.5		58		0		0
7111.55		12803		19531		5.53546		20675.5		45		0		0
7111.6		12805		20030		5.50288		21196.4		57		0		0
7111.66		12800		20993		5.63693		22247.1		29		0		0
7111.7		12794		21869		5.91334		23243.5		51		0		0
7111.75		12782		22582		6.16845		24066.5		72		0		0
7111.8		12785		23536		6.27718		25112.3		58		0		0
7111.85		12777		24449		6.21379		26068.9		62		0		0
7111.9		12774		25380		6.91168		27264.4		42		0		0
7111.95		12779		26449		6.8631		28398		55		0		0
7112		12777		26760		7.2409		28848.9		44		0		0
7112.05		12776		28022		7.20576		30198		51		0		0
7112.1		12778		28489		7.43315		30776.7		51		0		0
7112.15		12782		29357		7.5375		31750.2		47		0		0
7112.2		12782		29616		7.55875		32037.6		49		0		0
7112.25		12783		29616		7.64163		32066.4		44		0		0
7112.3		12798		29323		7.92003		31845.1		43		0		0
7112.35		12799		28957		7.71155		31376.6		54		0		0
7112.4		12789		29167		7.50202		31532.6		44		0		0
7112.45		12781		28611		7.37194		30888		56		0		0
7112.5		12792		27823		7.33197		30024.4		53		0		0
7112.55		12794		27111		7.07053		29173.7		53		0		0
7112.6		12800		26258		7.02928		28243.3		48		0		0
7112.65		12788		25507		6.76925		27359		41		0		0
7112.7		12787		24346		6.52794		26046.3		47		0		0
7112.75		12794		23883		6.28461		25484.6		46		0		0
7112.8		12788		23079		6.31395		24634.4		50		0		0
7112.85		12789		22564		6.22112		24060.9		57		0		0
7112.9		12786		22097		6.09094		23530.2		48		0		0
7112.95		12790		21328		5.96067		22679.9		54		0		0
7113		12792		20839		5.71498		22102.1		51		0		0
7113.05		12794		20442		5.42141		21613.8		57		0		0
7113.1		12788		19996		5.7055		21205.9		47		0		0
7113.15		12795		20073		5.60986		21266		44		0		0
7113.2		12803		19657		5.5616		20814.6		55		0		0
7113.25		12788		19913		5.47018		21065.3		49		0		0
7113.3		12794		19617		5.37267		20730.8		47		0		0
7113.35		12788		19206		5.42384		20307.4		59		0		0
7113.41		12781		19338		5.5385		20471.8		53		0		0
7113.45		12781		19465		5.43094		20582.8		48		0		0
7113.5		12776		19326		5.33776		20415.7		45		0		0
7113.56		12773		19438		5.26941		20519.2		56		0		0
7113.6		12781		19344		5.13094		20390.2		55		0		0
7113.65		12773		19201		5.45347		20308.5		44		0		0
7113.7		12772		19018		5.33802		20090.4		56		0		0
7113.75		12774		19077		5.42896		20172.1		48		0		0
7113.8		12777		18724		5.40618		19794.1		48		0		0
7113.85		12773		18658		5.19485		19680.4		49		0		0
7113.9		12782		18360		5.37744		19403.4		45		0		0
7113.95		12775		18208		5.2184		19210.5		48		0		0
7114		12774		17846		5.05002		18795.2		50		0		0
7114.04		12774		17831		4.94979		18759.6		52		0		0
7114.1		12765		17236		5.05536		18153.7		49		0		0
7114.15		12764		17451		4.82173		18335.1		56		0		0
7114.2		12770		16872		4.9201		17745.1		53		0		0
7114.25		12774		16661		4.88374		17516.5		42		0		0
7114.3		12765		16700		5.12314		17601.8		49		0		0
7114.35		12760		16430		4.82714		17263.3		50		0		0
7114.4		12763		16373		4.68938		17178.6		39		0		0
7114.45		12753		16068		4.67779		16856.5		44		0		0
7114.5		12754		15965		4.76733		16764.2		42		0		0
7114.55		12748		15752		4.65722		16521.4		44		0		0
7114.6		12756		15853		4.58166		16614.2		53		0		0
7114.65		12746		15810		4.75747		16599.7		46		0		0
7114.7		12746		15581		4.50554		16316.1		43		0		0
7114.75		12737		15576		4.70419		16344.9		54		0		0
7114.8		12756		15516		4.70038		16281.3		47		0		0
7114.85		12751		15604		4.49418		16338.3		54		0		0
7114.9		12754		15569		4.51766		16305.6		64		0		0
7114.95		12756		15473		4.78317		16250.3		50		0		0
7115		12762		15494		4.47277		16219.5		40		0		0
7115.05		12763		15637		4.56003		16384.1		42		0		0
7115.1		12763		15773		4.7465		16559		53		0		0
7115.15		12767		15648		4.6697		16414.5		49		0		0
7115.2		12750		15609		4.67363		16374.3		46		0		0
7115.25		12750		15730		4.6623		16499.2		40		0		0
7115.3		12753		16121		4.5393		16887.6		43		0		0
7115.35		12755		16204		4.52976		16972.8		48		0		0
7115.4		12750		15810		4.79914		16607		43		0		0
7115.46		12758		16341		4.73635		17153.4		43		0		0
7115.51		12759		16135		4.81878		16951.9		45		0		0
7115.55		12756		16220		4.73322		17025.9		53		0		0
7115.6		12756		16261		4.68368		17060		42		0		0
7115.65		12761		16624		4.87107		17475.2		54		0		0
7115.7		12751		16572		4.65014		17380.2		64		0		0
7115.75		12747		16816		4.8113		17666		47		0		0
7115.8		12747		16958		4.83696		17819.9		51		0		0
7115.85		12739		17118		5.0447		18027.4		52		0		0
7115.9		12726		17450		5.0839		18384.7		47		0		0
7115.95		12748		17492		5.0463		18421.6		39		0		0
7116		12735		17792		5.0232		18733		48		0		0
7116.05		12751		17704		5.07926		18651.4		48		0		0
7116.1		12758		18254		5.27226		19270		49		0		0
7116.15		12756		18482		5.31926		19520.3		52		0		0
7116.2		12767		18454		5.0591		19437.4		44		0		0
7116.25		12759		19009		5.54131		20124.1		48		0		0
7116.3		12738		18820		5.63898		19944.7		50		0		0
7116.35		12725		19358		5.47594		20479.4		50		0		0
7116.4		12735		19785		5.38874		20911.9		47		0		0
7116.45		12739		20177		5.59146		21372		55		0		0
7116.5		12741		20378		5.7672		21625.2		40		0		0
7116.55		12750		20922		5.53056		22146.8		49		0		0
7116.6		12747		20905		5.5824		22141		52		0		0
7116.65		12750		21382		5.83699		22707.4		43		0		0
7116.7		12745		21610		5.99331		22987.7		46		0		0
7116.75		12740		21958		5.85235		23322.9		46		0		0
7116.8		12738		22430		6.18602		23909		44		0		0
7116.85		12746		22631		6.31536		24156.6		48		0		0
7116.9		12736		23542		6.33328		25133.8		50		0		0
7116.95		12739		23876		6.59114		25560.7		52		0		0
7117		12736		24423		6.66365		26166.7		49		0		0
7117.05		12743		24982		6.64902		26761.4		46		0		0
7117.1		12745		25246		6.91568		27121.6		52		0		0
7117.15		12730		26146		6.89018		28080.8		59		0		0
7117.2		12730		26752		7.06349		28785.2		51		0		0
7117.25		12726		27068		7.19331		29166		38		0		0
7117.3		12723		27522		7.37197		29712.4		49		0		0
7117.35		12730		28165		7.25869		30369.4		47		0		0
7117.4		12734		28945		7.4001		31258.1		43		0		0
7117.46		12723		29691		7.85402		32221.7		57		0		0
7117.5		12725		30194		7.97562		32810.9		58		0		0
7117.55		12719		31109		8.22064		33895.4		49		0		0
7117.61		12725		31581		8.28659		34434.4		51		0		0
7117.65		12701		32103		8.40365		35048.3		42		0		0
7117.7		12705		32782		8.57869		35858.2		37		0		0
7117.75		12719		33481		8.61824		36638.6		40		0		0
7117.8		12726		34277		8.92986		37638		48		0		0
7117.85		12723		35480		9.09238		39028.6		46		0		0
7117.9		12748		36314		8.82416		39828.5		40		0		0
7117.95		12745		37232		9.6305		41199.7		41		0		0
7118		12737		38603		9.55427		42680.8		40		0		0
7118.05		12740		38899		9.82934		43139.3		30		0		0
7118.1		12748		40178		10.0166		44650.5		40		0		0
7118.15		12747		41266		10.4492		46081.1		55		0		0
7118.2		12749		42439		10.6353		47489.7		47		0		0
7118.25		12757		43385		11.0287		48762.9		40		0		0
7118.3		12744		44753		11.2112		50403.9		47		0		0
7118.35		12738		45821		11.6156		51842.9		43		0		0
7118.4		12738		46658		11.941		52984.9		34		0		0
7118.45		12738		47902		12.0061		54437.9		44		0		0
7118.5		12731		49246		12.2022		56090.2		50		0		0
7118.55		12721		50576		12.5573		57839		56		0		0
7118.6		12721		51934		12.8105		59564.5		50		0		0
7118.65		12718		53200		13.2301		61311.6		33		0		0
7118.7		12710		54661		13.4293		63140.3		35		0		0
7118.75		12719		55780		13.8293		64732		37		0		0
7118.8		12723		57064		14.4582		66708.9		44		0		0
7118.85		12721		58670		14.8502		68902.1		37		0		0
7118.9		12723		61142		15.3224		72205.7		54		0		0
7118.95		12711		62470		15.7854		74179.5		35		0		0
7119		12713		64408		15.946		76626.9		28		0		0
7119.05		12708		66274		16.566		79432.9		43		0		0
7119.1		12701		68275		17.1291		82387.2		33		0		0
7119.15		12702		70136		17.6381		85155.9		52		0		0
7119.2		12710		72090		17.951		87862.1		34		0		0
7119.25		12709		73968		18.5484		90812.2		44		0		0
7119.3		12720		75923		19.1645		93922.8		55		0		0
7119.36		12720		78158		19.737		97377.4		34		0		0
7119.4		12721		80085		20.2913		100472		53		0		0
7119.45		12719		82375		20.9611		104221		41		0		0
7119.5		12710		84110		21.438		107062		52		0		0
7119.55		12703		86044		22.1094		110468		51		0		0
7119.6		12707		88254		22.8754		114430		54		0		0
7119.65		12694		91542		23.4586		119598		49		0		0
7119.7		12700		92687		24.263		122380		57		0		0
7119.75		12693		95798		24.8724		127514		43		0		0
7119.8		12687		98489		25.4505		132112		99		0		0
7119.85		12695		100823		26.605		137370		58		0		0
7119.9		12691		103422		27.3091		142276		54		0		0
7119.94		12686		105987		28.0459		147298		63		0		0
7119.99		12688		108569		28.664		152194		37		0		0
7120.05		12691		111245		29.8014		158472		66		0		0
7120.1		12688		113109		30.8791		163639		53		0		0
7120.15		12692		116146		31.3912		169287		48		0		0
7120.2		12687		117981		32.5706		174970		43		0		0
7120.25		12679		120941		32.9756		180443		48		0		0
7120.3		12682		122462		33.7904		184961		44		0		0
7120.35		12682		124251		34.3973		189399		68		0		0
7120.4		12677		126110		35.401		195220		48		0		0
7120.45		12685		127580		36.0325		199445		49		0		0
7120.5		12681		129712		36.513		204313		32		0		0
7120.55		12675		130623		37.3494		208494		52		0		0
7120.6		12677		132236		37.9988		213280		57		0		0
7120.65		12682		134255		38.5162		218358		63		0		0
7120.7		12673		134277		39.3297		221322		58		0		0
7120.75		12668		136118		39.6282		225466		48		0		0
7120.8		12667		137477		40.2273		230000		50		0		0
7120.85		12662		138001		40.8061		233134		65		0		0
7120.9		12657		139095		40.8405		235119		47		0		0
7120.95		12665		140088		41.2121		238294		58		0		0
7121.31		12657		143155		43.2312		252172		58		0		0
7121.6		12664		144013		43.3606		254263		59		0		0
7121.89		12662		142428		42.9195		249521		49		0		0
7122.2		12652		140661		42.0241		242620		64		0		0
7122.5		12642		138335		41.2682		235537		63		0		0
7122.79		12639		137690		40.4207		231104		58		0		0
7123.1		12623		137621		40.181		230062		59		0		0
7123.4		12609		137839		40.3038		230901		53		0		0
7123.7		12606		138452		40.9176		234337		49		0		0
7124		12601		140916		41.6386		241454		64		0		0
7124.3		12594		143280		42.8976		250918		58		0		0
7124.6		12598		144315		43.9305		257386		53		0		0
7124.89		12611		146225		44.5157		263543		72		0		0
7125.21		12313		144902		43.9242		258404		59		0		0
7125.5		12299		144807		44.0421		258779		58		0		0
7125.8		12493		145562		43.8895		259420		64		0		0
7126.1		12505		143848		43.5894		255002		52		0		0
7126.4		12507		143541		43.17		252580		74		0		0
7126.7		12496		141969		42.9063		248660		67		0		0
7127		12480		141522		42.8084		247452		70		0		0
7127.3		12471		141729		42.3855		245995		57		0		0
7127.6		12444		141855		42.1037		245016		63		0		0
7127.9		12438		141140		42.1003		243766		76		0		0
7128.2		12430		140817		42.4461		244670		67		0		0
7128.5		12433		141439		42.7417		247019		12		0		0
7128.79		12417		143014		42.8883		250411		68		0		0
7129.1		12408		144231		43.7216		256281		59		0		0
7129.41		12404		144034		44.79		260884		45		0		0
7129.7		12398		146592		45.3357		268168		39		0		0
7130		12387		148077		46.4132		276331		67		0		0
7130.29		12378		149145		46.8429		280574		86		0		0
7130.6		12367		150086		47.6033		286442		57		0		0
7130.89		12371		150453		47.9267		288926		80		0		0
7131.21		12365		150553		48.0379		289736		55		0		0
7131.5		12368		150981		48.1812		291364		56		0		0
7131.79		12363		151270		48.0321		291084		68		0		0
7132.1		12353		150111		47.8952		288095		57		0		0
7132.4		12345		150168		47.3783		285373		39		0		0
7132.69		12341		149543		46.9746		282021		78		0		0
7133		12339		148019		46.8346		278412		61		0		0
7133.3		12347		148558		46.0676		275452		61		0		0
7133.6		12354		147125		45.7406		271151		36		0		0
7133.9		12346		146031		45.3677		267298		66		0		0
7134.2		12345		146414		44.9737		266080		54		0		0
7134.5		12328		145768		44.8411		264269		69		0		0
7134.79		12343		145681		44.9004		264396		48		0		0
7135.11		12336		145735		44.8843		264417		43		0		0
